freq (GHz)   S (cm-1/mol/cm^2)  E_low (cm-1) 
   102.031878  2.02899e-23        1.908 
   104.391706  5.87326e-23       34.438 
   104.711076  1.25945e-28     2911.933 
   104.914699  4.80595e-24      326.603 
   105.453553  5.68695e-28     2588.401 
   106.301689  2.34196e-27     2283.713 
   106.374262  8.38068e-24      396.986 
   107.227553  8.78778e-27     1997.921 
   107.567842  9.31707e-24      376.388 
   108.296280  3.00386e-26     1731.074 
   109.260510  1.00341e-23      252.018 
   109.331028  9.31921e-26     1483.215 
   110.821374  2.64350e-25     1254.388 
   111.539320  6.69698e-25     1044.631 
   111.902792  1.23078e-23      301.119 
   112.532316  1.34735e-23       64.696 
   112.553583  3.14542e-24      682.468 
   112.577899  7.91005e-24      287.922 
   113.978014  4.88292e-28     2641.179 
   114.312876  3.44334e-28     2306.851 
   114.574439  8.08685e-24       24.398 
   114.706685  1.60243e-24      853.976 
   115.004629  2.03882e-27     2333.352 
   115.291388  2.54144e-23       91.449 
   115.645995  2.06101e-27     1998.962 
   115.722145  1.49375e-23      202.801 
   115.744666  1.62472e-23      124.072 
   115.867078  7.71755e-27     2044.409 
   116.570248  2.64655e-26     1774.399 
   116.859712  1.19338e-23      300.729 
   117.117826  8.21636e-26     1523.369 
   117.201739  8.22582e-24      417.904 
   117.514377  2.30611e-25     1291.360 
   117.631786  5.03245e-24      554.278 
   117.759312  5.84358e-25     1078.413 
   117.801656  2.73703e-24      709.841 
   117.862500  1.33407e-24      884.562 
   118.478548  5.83014e-23       18.709 
   123.066106  2.24429e-25     1021.212 
   123.914004  7.01260e-24      530.101 
   124.496482  1.16810e-22       52.971 
   124.614092  9.95358e-23       37.920 
   124.981549  1.38861e-28     2967.983 
   125.921707  6.37499e-28     2641.317 
   126.953484  2.66857e-27     2333.487 
   127.127445  4.40534e-27     1782.046 
   128.107910  1.01807e-26     2044.545 
   128.668791  8.23719e-23       25.432 
   129.294171  3.53248e-26     1774.539 
   129.803360  1.36735e-22       70.539 
   130.584304  7.61867e-24       20.038 
   130.732792  1.75784e-24      625.478 
   130.769245  1.11784e-25     1523.516 
   131.886308  3.19139e-25     1291.519 
   131.936529  7.21239e-24      554.527 
   132.114040  8.63335e-23       48.564 
   132.258969  1.86973e-28     2912.448 
   133.471470  5.28177e-23        6.346 
   133.579400  8.45628e-28     2588.929 
   134.018275  1.92788e-24      884.753 
   134.398207  8.43100e-25     1078.583 
   134.417591  1.53313e-24      167.768 
   134.535252  1.69855e-23       56.942 
   134.703278  2.09353e-23      113.219 
   134.722075  3.47040e-27     2284.249 
   134.808987  3.61726e-26     1324.139 
   134.826120  6.36472e-23       15.540 
   134.873840  4.85377e-23       48.472 
   135.566280  2.87925e-23      174.047 
   135.691665  1.29146e-26     1998.461 
   136.343659  2.05627e-23      188.693 
   136.492011  4.35391e-26     1731.614 
   136.847951  1.67525e-23      283.441 
   137.126617  1.32886e-25     1483.752 
   137.520630  1.18927e-23      397.406 
   137.597122  3.66504e-25     1254.918 
   137.835764  7.41958e-24      530.587 
   137.906997  9.12598e-25     1045.151 
   138.041018  4.12078e-24      682.954 
   138.050725  2.04588e-24      854.486 
   138.208070  1.43344e-24      355.043 
   138.573717  1.93901e-25      933.477 
   139.484024  6.72635e-25      610.358 
   141.158760  4.26166e-23        8.270 
   141.195795  1.65264e-23      339.195 
   141.513165  4.46662e-24      710.042 
   141.653160  1.61763e-22       90.569 
   144.436664  1.31244e-23      440.076 
   145.311584  1.44770e-28     3024.666 
   146.020421  1.77860e-23        3.637 
   146.449705  6.75584e-28     2694.869 
   146.458984  2.65142e-28     2551.279 
   147.703025  2.87527e-27     2383.898 
   149.024959  1.11424e-26     2091.808 
   149.209905  2.50484e-23      282.945 
   150.547745  3.93622e-26     1818.647 
   151.708747  3.14181e-28     2857.691 
   151.917560  6.28897e-24       16.140 
   151.938666  1.26061e-25     1564.462 
   152.953645  1.88269e-23       49.947 
   153.015054  3.19727e-23        5.311 
   153.148983  1.39662e-27     2537.312 
   154.133393  3.70237e-25     1329.294 
   154.402879  5.63481e-27     2235.782 
   154.825986  9.65782e-25     1113.187 
   155.232875  2.60303e-23      102.956 
   155.259591  5.83955e-26     1426.969 
   155.474270  2.06148e-26     1953.151 
   155.481014  4.80263e-24      738.296 
   156.033445  2.64655e-23      175.258 
   156.366320  6.83249e-26     1689.467 
   157.058684  2.24171e-23      266.789 
   157.081124  2.04918e-25     1444.776 
   157.588146  1.62997e-23      377.560 
   157.620516  5.55494e-25     1219.118 
   157.983249  1.35825e-24     1012.533 
   158.001699  1.04179e-23      507.540 
   158.171454  2.98937e-24      825.054 
   158.171895  5.90445e-24      656.714 
   160.005354  2.41368e-24      916.168 
   160.143612  5.79401e-23       10.798 
   160.398699  4.18966e-24      570.808 
   160.802569  1.93099e-22      113.002 
   161.392836  1.82970e-23      418.117 
   162.020378  1.44637e-22       29.033 
   162.775883  1.07567e-22       13.280 
   164.323367  1.79961e-23      379.976 
   165.620726  1.20248e-22       65.014 
   167.056655  6.86561e-28     2749.055 
   168.506362  2.96879e-27     2434.947 
   170.112752  1.17025e-26     2139.711 
   170.284816  3.35567e-24       12.979 
   170.546952  8.47968e-23       18.709 
   171.132151  5.08721e-28     2803.565 
   171.708649  4.19353e-26     1863.396 
   172.687850  2.22372e-27     2486.330 
   172.920160  1.01246e-23      605.296 
   173.198948  7.48478e-25      950.659 
   173.207299  1.97961e-23       43.531 
   173.785208  1.37271e-25     1606.050 
   174.048282  8.82022e-27     2187.951 
   174.576458  3.03026e-23       93.374 
   174.818985  1.15899e-23      579.534 
   174.850249  6.58232e-23      112.533 
   175.132184  4.04277e-25     1367.718 
   175.216515  3.17234e-26     1908.478 
   176.093350  3.27778e-23      162.454 
   176.194713  1.03343e-25     1647.960 
   176.940267  2.86932e-23      250.791 
   176.984287  3.04565e-25     1406.441 
   177.561397  2.59645e-24      948.249 
   177.585094  8.11109e-25     1183.961 
   177.647037  2.14921e-23      358.357 
   177.996801  1.94751e-24      980.558 
   178.040260  1.40566e-23      485.141 
   178.213942  4.20610e-24      796.267 
   178.236806  8.14290e-24      631.119 
   178.416396  7.95022e-24      518.906 
   178.846285  1.94348e-24      196.982 
   179.005570  1.11040e-24     1148.433 
   179.375367  1.63448e-23      423.500 
   179.721107  1.67448e-23      485.816 
   184.287736  1.13626e-22       29.033 
   184.532956  1.24618e-23      469.803 
   186.929303  5.17821e-28     2412.774 
   187.294432  4.96454e-23        2.260 
   187.475166  2.30345e-22      137.783 
   187.722006  6.74651e-28     2803.877 
   188.366530  1.19146e-22       64.256 
   188.699491  1.00758e-26     1899.778 
   189.123890  2.72194e-22      144.037 
   189.392341  2.70632e-22      172.252 
   189.431728  2.96606e-27     2486.633 
   189.948118  1.90099e-24      397.107 
   190.127587  6.40294e-24      767.161 
   190.530065  7.99980e-28     2750.071 
   191.013390  1.90537e-22       22.662 
   191.195796  1.18735e-26     2188.254 
   192.197040  3.43779e-27     2435.982 
   192.254771  1.88443e-23       37.795 
   193.268180  4.33590e-26     1908.788 
   193.659554  1.34054e-26     2140.756 
   194.416645  3.38672e-23       84.417 
   194.812060  2.75981e-22      118.366 
   194.919812  4.73892e-26     1864.444 
   195.029536  1.43377e-25     1648.285 
   195.742135  3.89206e-23      150.305 
   195.979135  1.51733e-25     1607.093 
   196.837705  4.39419e-25     1368.747 
   196.854461  3.55205e-23      235.435 
   197.044300  2.73892e-22      202.948 
   197.116067  6.27595e-27     1875.282 
   197.359669  9.14701e-25      665.259 
   197.494742  1.14942e-24     1149.446 
   197.555307  2.73955e-23      339.802 
   197.947066  2.70881e-24      949.227 
   198.018213  1.83814e-23      463.386 
   198.191384  5.73825e-24      768.125 
   198.215644  4.36495e-25     1406.785 
   198.215965  1.08838e-23      606.169 
   198.262642  6.13168e-24      796.737 
   198.348540  6.15856e-23      202.904 
   198.602799  1.17052e-24     1184.337 
   201.376484  1.44537e-22       41.754 
   201.418731  2.67103e-25     1001.192 
   201.618164  5.03825e-26     1404.636 
   203.225140  6.54756e-23        3.637 
   203.504212  1.59103e-22       83.781 
   204.136230  2.81955e-22       41.754 
   204.525179  2.78406e-22       95.294 
   206.987360  3.07524e-24      980.959 
   207.912875  2.63742e-28     3026.970 
   208.480259  6.45326e-28     2859.334 
   209.903353  1.22738e-27     2697.210 
   210.392993  2.88257e-27     2538.957 
   210.817586  1.83476e-23      534.235 
   211.418822  4.59811e-23      319.551 
   211.677583  5.18536e-27     2386.268 
   211.762762  1.60835e-23       32.683 
   212.385689  1.21893e-23      658.701 
   212.524882  1.17403e-26     2237.436 
   212.981200  2.82605e-22      236.058 
   213.187321  1.89225e-24      882.798 
   213.237891  1.98829e-26     2094.197 
   213.807333  3.59815e-23       76.115 
   214.302297  1.96101e-25     1343.319 
   214.567419  4.34490e-26     1954.822 
   214.585642  6.90843e-26     1821.047 
   215.468142  4.47280e-23      138.796 
   215.721172  2.17410e-25     1566.865 
   215.999729  2.75727e-22       74.869 
   216.576800  8.59764e-28     2392.043 
   216.593475  4.26363e-23      220.727 
   216.643740  6.18556e-25     1331.693 
   217.351008  1.58847e-24     1115.572 
   217.412917  3.39687e-23      321.892 
   217.430481  1.47224e-25     1691.162 
   217.839319  3.67434e-24      918.539 
   217.902357  2.33980e-23      442.278 
   218.101233  7.63272e-24      740.626 
   218.129232  1.41768e-23      581.863 
   218.896704  4.46868e-25     1446.503 
   219.355012  3.07170e-22       34.438 
   219.494181  5.40231e-28     2500.592 
   220.451860  2.92671e-23      462.450 
   221.114895  2.71506e-22      164.876 
   221.326438  3.04284e-24     1014.351 
   221.735714  1.76962e-22       56.859 
   223.179729  1.44105e-27     2285.688 
   224.847684  1.28050e-24     1220.877 
   225.298371  1.20859e-27     2439.219 
   225.583136  2.27342e-24      228.533 
   227.031882  2.64167e-22       57.123 
   227.150116  4.03069e-28     2971.600 
   229.252862  1.84450e-27     2644.981 
   229.290461  6.03364e-28     2915.426 
   229.857630  8.48163e-23        5.311 
   229.866226  3.50654e-24       83.781 
   229.888279  3.73146e-24      104.865 
   229.986756  1.63523e-23      631.573 
   230.588737  3.54225e-28     2611.353 
   230.933360  1.14046e-23       28.220 
   231.130479  7.66266e-27     2337.188 
   231.516241  2.74018e-27     2591.919 
   232.784487  2.88788e-26     2048.274 
   233.296402  3.64065e-23       68.450 
   233.768068  1.13287e-26     2287.259 
   234.215378  9.86460e-26     1778.288 
   234.235879  1.08888e-26     1857.771 
   235.004014  4.96912e-23      127.933 
   235.422563  3.04986e-25     1527.276 
   235.605928  7.20741e-27     1953.621 
   235.927502  1.09794e-22        8.270 
   235.951920  2.40702e-22       42.076 
   236.023284  1.76068e-23      585.365 
   236.225095  1.33622e-22      136.157 
   236.295679  4.98287e-23      206.661 
   236.404150  8.52470e-25     1295.280 
   236.428768  3.80522e-24      128.271 
   236.516213  4.27838e-26     2001.498 
   236.871399  3.04775e-24       65.014 
   237.156811  2.14971e-24     1082.341 
   237.169111  4.10941e-23      304.627 
   237.521022  2.95583e-22      271.518 
   237.674874  4.87842e-24      888.493 
   237.721817  2.90991e-23      421.813 
   237.950760  9.93297e-24      713.771 
   237.970982  1.80542e-23      558.202 
   238.626418  1.45975e-25     1734.686 
   240.413382  6.93872e-24      857.802 
   240.636334  2.53851e-27     2181.507 
   241.509046  2.36908e-22       82.513 
   241.538467  3.96442e-24      817.693 
   241.894765  8.08499e-24      826.887 
   241.985451  2.03554e-22       29.724 
   242.466986  2.21503e-24      441.503 
   242.476809  1.71545e-26     1764.131 
   242.796914  1.26788e-24     1258.084 
   243.235438  4.61508e-25     1486.862 
   243.935959  2.00484e-22      104.865 
   244.481519  4.66530e-22       56.859 
   245.178723  2.09884e-22       74.335 
   245.283107  4.94743e-27     2051.699 
   245.302241  1.53031e-22       20.038 
   246.155926  3.12018e-28     2642.085 
   246.367932  6.05033e-28     2916.860 
   246.686120  8.91003e-23       12.979 
   247.127392  4.99896e-23       10.415 
   247.440300  1.23788e-22       16.140 
   248.211427  6.53400e-26     1473.355 
   248.364769  1.84408e-22       24.398 
   248.572293  2.38550e-28     2724.340 
   248.579422  2.72257e-27     2593.385 
   248.698697  4.59917e-22       48.564 
   248.779693  9.34930e-26     1390.258 
   248.855711  3.79122e-24      154.002 
   249.099201  3.07808e-22      318.295 
   249.301328  1.30641e-23      714.762 
   250.156050  5.45104e-24       24.394 
   250.215249  5.53579e-28     2972.152 
   250.358383  2.37727e-22       35.180 
   250.556706  1.11219e-26     2288.743 
   251.176571  2.31515e-24       48.564 
   251.438057  5.77669e-24      225.946 
   251.639927  5.39485e-24      259.927 
   251.758323  2.78791e-22      359.653 
   252.300492  4.12078e-26     2002.987 
   252.615372  3.47200e-23       61.430 
   252.638148  2.55317e-27     2645.518 
   253.429716  1.48621e-23      639.244 
   253.810400  1.38350e-25     1736.166 
   253.936317  2.85285e-22       48.472 
   254.277635  3.45366e-22      279.441 
   254.516776  5.34908e-23      117.712 
   254.568879  1.04708e-24      722.486 
   255.055541  5.42225e-28     2520.981 
   255.084867  4.20222e-25     1488.326 
   255.387281  1.07468e-26     2337.722 
   255.575629  3.41412e-26     1803.113 
   255.892296  5.67779e-23      193.241 
   256.065705  4.70738e-26     1558.693 
   256.120982  1.15366e-24     1259.508 
   256.213306  3.52760e-24     1048.352 
   256.864332  4.86272e-23      288.005 
   256.914059  2.85548e-24     1049.751 
   257.069472  3.98455e-25     1060.159 
   257.457395  6.35593e-24      859.091 
   257.466733  3.54470e-23      401.993 
   257.480708  7.10034e-24      755.391 
   257.740798  1.26788e-23      687.559 
   257.751242  2.25465e-23      535.184 
   257.898510  4.10657e-26     2048.818 
   258.889597  4.98976e-24      296.216 
   259.008045  1.38095e-25     1309.387 
   259.022529  6.04337e-24      194.264 
   259.617203  3.27702e-22       64.256 
   259.788523  5.37501e-25      989.864 
   260.326944  3.13602e-22      194.264 
   260.474131  4.02976e-24      436.205 
   261.120365  1.10022e-23      695.911 
   261.569702  1.59801e-24      714.353 
   261.589768  2.80465e-26     1672.681 
   261.814648  1.44138e-25     1778.852 
   261.997976  3.48000e-27     2152.019 
   262.084086  3.45843e-24      483.069 
   262.325170  2.97906e-25     1071.226 
   262.833407  3.02259e-25     1132.710 
   263.161640  4.49966e-25     1527.878 
   263.263571  6.64782e-27     1970.815 
   263.436071  2.57798e-22      403.443 
   263.877199  5.22011e-25     1262.325 
   264.682896  1.09265e-22      234.333 
   265.032475  3.23355e-24     1083.066 
   265.163938  1.28345e-24      774.076 
   265.429646  5.46361e-26     1487.442 
   265.488686  3.90462e-22      243.162 
   265.554054  1.68919e-22       15.540 
   265.567011  8.94086e-28     2862.751 
   266.414210  2.01734e-24      656.899 
   266.469799  3.72117e-24      182.063 
   267.094144  4.69439e-24      391.625 
   267.871060  3.65409e-22       82.513 
   267.883845  3.95621e-27     2542.421 
   269.957222  1.58884e-26     2240.932 
   270.151963  4.62678e-27     2079.480 
   270.229671  3.10370e-22      309.281 
   270.997262  2.98387e-24      532.227 
   271.111258  3.46561e-26     1646.288 
   271.176375  4.99320e-28     3029.514 
   271.410221  2.41813e-22       94.171 
   271.787036  5.78734e-26     1958.337 
   271.916828  3.07383e-23       55.049 
   272.126583  7.40081e-25      921.809 
   272.289068  1.35076e-24     1295.918 
   272.363872  4.59705e-24      334.820 
   272.625741  1.41540e-24       34.438 
   272.789537  2.49448e-24      262.418 
   273.372027  1.90932e-25     1694.683 
   273.929987  5.56518e-23      108.134 
   273.989189  2.34196e-27     2699.754 
   274.709684  5.69875e-25     1450.016 
   274.940951  6.02808e-24      164.876 
   275.434221  6.31654e-23      180.463 
   275.795999  1.53596e-24     1224.376 
   275.913733  2.33550e-25     1207.531 
   276.129271  1.04467e-24      836.082 
   276.484003  5.63741e-23      272.028 
   276.625176  3.73146e-24     1017.803 
   276.769866  9.99722e-27     2388.825 
   276.999607  1.29384e-22       10.798 
   277.150596  4.23818e-23      382.816 
   277.188904  8.14478e-24      830.330 
   277.470085  2.76554e-23      512.811 
   277.475991  1.59103e-23      661.990 
   278.835213  7.26908e-23      358.750 
   279.075255  3.98455e-22      103.224 
   279.429977  6.46516e-22       65.014 
   280.046690  2.08872e-25     1230.722 
   280.365998  3.90462e-26     2096.779 
   280.407884  4.40027e-22      209.521 
   280.688287  2.56141e-24      601.701 
   281.237334  7.15780e-24      921.505 
   282.075999  2.71944e-28     3145.251 
   282.338135  1.26584e-23      773.503 
   282.739067  5.39237e-24      349.319 
   282.739529  1.37334e-25     1823.668 
   283.183557  6.87036e-22       74.335 
   284.555084  2.47445e-27     2254.592 
   284.657171  2.42873e-22      449.591 
   284.748030  1.30280e-27     2809.273 
   285.178697  2.40646e-22      128.271 
   285.364585  4.15125e-23      509.388 
   286.245678  2.58511e-24      583.690 
   287.166927  5.66865e-27     2492.090 
   287.264888  1.26555e-24     1334.435 
   287.661928  6.34131e-28     2529.488 
   288.537333  3.60728e-24      212.454 
   289.332964  2.23861e-26     2193.756 
   289.424419  4.51938e-25     1569.530 
   290.454143  2.09160e-23      686.222 
   291.145988  2.44500e-23       49.309 
   291.209471  4.21676e-24      375.743 
   291.245218  8.01455e-26     1914.323 
   292.171632  2.57917e-26     1736.150 
   292.257226  2.42314e-22       25.432 
   292.287083  4.43894e-28     3087.509 
   292.654871  4.67928e-26     1583.405 
   292.901559  2.59824e-25     1653.838 
   293.122934  4.05676e-22      103.224 
   293.296991  5.58058e-23       99.198 
   293.395535  8.57392e-25      900.379 
   293.481704  4.26854e-22      126.368 
   294.042436  2.35874e-24      488.231 
   294.298516  7.61692e-25     1412.344 
   294.903890  6.85929e-23      168.328 
   295.075095  1.02773e-24      855.979 
   295.173366  1.82297e-25     1284.631 
   295.267576  2.11387e-27     2754.628 
   295.431054  2.01595e-24     1189.885 
   296.045247  6.40884e-23      256.693 
   296.292144  4.80484e-24      986.496 
   296.499638  4.89530e-22      178.569 
   296.772561  4.98057e-23      364.283 
   296.872291  1.02820e-23      802.212 
   297.133379  3.33871e-23      491.080 
   297.158431  1.96643e-23      637.064 
   297.804119  9.39895e-24      889.223 
   298.256832  2.34142e-22      162.303 
   298.752144  9.19347e-27     2440.568 
   298.900671  4.12458e-27     2329.631 
   299.367539  5.55494e-24      137.783 
   300.049246  2.71069e-22      116.359 
   300.433175  6.18841e-25       22.662 
   301.131952  3.97905e-28     3089.263 
   301.724779  3.62476e-26     2145.385 
   302.121921  1.18326e-24     1184.062 
   303.139752  3.52760e-22      225.946 
   303.911653  1.87447e-27     2756.427 
   304.332032  2.12608e-22        8.507 
   305.168306  3.22092e-24      548.748 
   306.429450  8.02009e-27     2442.393 
   306.867118  2.23913e-24      637.462 
   307.085450  1.31910e-25     1869.124 
   307.365884  1.95380e-22      560.555 
   307.868347  4.22648e-25     1611.847 
   307.910049  5.98108e-24      309.281 
   308.248095  3.18331e-24     1154.404 
   308.430181  3.76426e-24     1118.352 
   308.684847  3.11372e-26     2147.216 
   309.618280  1.07295e-24      782.039 
   309.815957  3.23876e-22      349.319 
   309.870293  1.11398e-23      834.956 
   310.340901  1.62622e-23       44.208 
   310.375890  2.36363e-22      508.553 
   310.676115  1.09567e-25     1870.946 
   311.196571  4.50069e-22      151.923 
   311.485379  8.59962e-22       83.781 
   311.487369  5.32328e-22      150.345 
   311.853898  1.75784e-27     2359.426 
   312.400254  3.49043e-25     1613.630 
   312.603283  5.36141e-23       90.902 
   312.617640  8.51293e-27     1979.596 
   312.796450  3.17819e-25     1154.253 
   313.402271  3.89206e-28     3146.140 
   313.775088  9.49903e-26     1709.062 
   313.803676  1.64581e-22      615.011 
   313.852860  1.00526e-24     1375.312 
   314.318557  3.45127e-24      245.178 
   314.320735  7.26908e-23      156.834 
   314.575363  3.84131e-24      418.990 
   315.027856  2.61144e-24     1156.033 
   315.193201  2.31515e-22      498.040 
   315.546593  7.15121e-23      242.001 
   315.917109  6.10491e-24      955.830 
   315.928990  7.04659e-25      966.976 
   316.339791  3.30278e-22       37.920 
   316.339880  5.75810e-23      346.392 
   316.509769  1.28020e-23      774.735 
   316.743269  3.96990e-23      469.992 
   316.791574  2.39541e-23      612.780 
   316.888792  1.88573e-27     2810.139 
   318.151001  1.92035e-26     1828.287 
   318.254334  4.73456e-28     2631.469 
   319.055018  2.59047e-24      298.638 
   319.536520  1.42456e-25     1364.020 
   319.787876  6.81992e-24      987.863 
   320.084681  2.92469e-25     1143.576 
   320.174089  5.75545e-28     3033.905 
   320.227891  8.30767e-27     2492.952 
   320.597197  9.28494e-22       94.171 
   321.281634  2.89520e-22      459.087 
   321.832871  1.33592e-24     1373.560 
   323.058530  2.66673e-27     2704.212 
   323.528696  2.47502e-22       10.415 
   323.806691  5.60376e-22      124.864 
   324.913913  3.35722e-26     2194.631 
   324.917324  6.00315e-27     2068.642 
   325.327062  5.13782e-26     1572.553 
   325.672177  1.12171e-26     2393.329 
   325.997648  2.75473e-22      154.002 
   327.357912  1.21585e-25     1915.235 
   327.811241  2.34466e-24     1108.593 
   328.013771  4.28134e-26     2101.310 
   329.292885  1.41215e-24      792.366 
   329.499374  7.27745e-24       39.747 
   330.030563  8.88340e-24      899.157 
   330.080778  1.48074e-25     1828.205 
   330.191157  1.72298e-22       18.709 
   330.519071  1.41442e-22      671.842 
   330.667757  2.95992e-22      140.893 
   331.764541  1.18408e-24     1413.396 
   331.866811  4.88517e-23       83.247 
   331.869346  4.63425e-25     1574.060 
   331.881606  4.57488e-24      113.002 
   331.933696  1.92921e-24      693.549 
   332.173571  4.67282e-22      179.871 
   332.836230  5.66865e-22      102.117 
   333.179334  1.56092e-25       13.280 
   333.364107  1.72735e-22      268.321 
   333.374149  1.31063e-24     1338.920 
   333.683899  7.50549e-23      145.983 
   334.588120  3.34179e-24     1122.822 
   334.724728  3.37504e-28     3205.405 
   334.996535  7.83212e-23      227.952 
   335.502012  7.66266e-24      925.805 
   335.854830  6.55359e-23      329.144 
   336.103829  1.57391e-23      747.901 
   336.303871  4.65457e-23      449.546 
   336.362901  7.78896e-26     1496.295 
   336.377885  2.87991e-23      589.139 
   337.104079  4.17618e-25     1654.790 
   337.872681  3.56188e-22      412.230 
   338.307369  1.65874e-27     2866.288 
   338.320360  4.33590e-22       52.971 
   338.785688  5.48251e-22       82.074 
   339.202954  8.23719e-28     2979.177 
   340.204506  3.92717e-24      498.040 
   340.551208  4.10373e-24     1035.951 
   340.856944  6.38380e-24      966.145 
   341.639078  3.46401e-24      464.563 
   342.189303  3.75301e-27     2652.628 
   342.208860  2.88855e-22       12.979 
   342.231633  6.16424e-22      126.368 
   342.332015  5.04521e-22       64.696 
   342.588751  6.25143e-24      271.518 
   342.684592  7.45726e-27     2545.975 
   342.756554  5.75810e-25     1035.877 
   342.839888  1.27667e-27     2419.009 
   342.901540  1.23703e-27     2466.527 
   343.096786  3.25671e-24      280.233 
   343.547835  2.34412e-24      537.289 
   344.245348  4.37501e-22       49.947 
   344.581045  1.08938e-21      104.865 
   344.807916  5.39609e-22       72.915 
   344.895861  1.55231e-26     2344.898 
   344.987585  5.84493e-22       91.449 
   344.998162  4.77287e-22       56.942 
   345.168666  3.48883e-22       37.795 
   345.285622  3.96807e-22       43.531 
   345.519658  2.96469e-22       32.683 
   345.553095  2.37673e-22       28.220 
   345.651296  1.71506e-22       24.394 
   345.678789  9.47064e-23       21.207 
   345.929285  6.13591e-22      112.533 
   346.059186  3.03095e-26     2244.525 
   346.340909  3.54960e-28     2922.404 
   347.320613  5.82478e-26     2056.039 
   347.483012  3.84485e-22      259.927 
   348.008734  1.10606e-25     1445.701 
   348.050323  1.41834e-26     1922.704 
   348.117468  6.28462e-22      136.157 
   349.460235  1.97961e-25     1786.100 
   350.351878  2.93616e-24     1228.377 
   350.619485  1.04443e-22      400.535 
   351.089607  4.14552e-23       76.232 
   351.310036  6.08666e-25     1535.128 
   352.082888  6.31363e-22      162.303 
   352.863796  1.69036e-24     1303.166 
   352.898493  3.75128e-25     1698.414 
   353.002395  7.52799e-23      135.772 
   353.444981  1.14572e-25     1961.979 
   353.949940  2.21248e-22      548.748 
   354.113481  4.22941e-24     1090.252 
   354.277557  3.33104e-22      391.625 
   354.397758  8.41549e-23      214.543 
   354.836160  6.03086e-24     1056.898 
   355.048817  9.50778e-24      896.421 
   355.322211  7.34648e-23      312.538 
   355.656666  1.91196e-23      721.708 
   355.817938  5.38492e-23      429.743 
   355.920251  3.41884e-23      566.140 
   356.147518  5.43475e-23      558.928 
   356.222372  4.77836e-22      210.196 
   357.024202  2.50138e-23      743.482 
   357.102182  1.17647e-21      116.359 
   357.497758  4.36194e-22      368.051 
   357.566889  1.23475e-22      730.978 
   357.679875  4.75751e-25     1079.976 
   358.219084  1.16756e-27     2925.078 
   358.347313  6.24280e-22      190.951 
   358.927942  1.03057e-23      954.172 
   358.987975  5.53579e-22       70.539 
   359.651727  3.68790e-22      190.951 
   360.260888  1.44704e-27     2923.074 
   360.574749  1.64581e-24      751.952 
   361.148569  2.29921e-25     1617.711 
   361.304600  5.23093e-27     2601.676 
   361.701516  1.01550e-24      843.914 
   362.158236  3.36186e-22       16.140 
   362.834168  3.15122e-22      167.768 
   363.593854  2.56436e-24      337.191 
   364.101238  2.12755e-26     2297.101 
   364.165049  6.57778e-27     2599.641 
   364.574379  3.80960e-24     1190.962 
   364.633669  1.19119e-26     2222.614 
   365.140869  1.00272e-22      805.513 
   365.472471  7.76746e-23      870.607 
   365.794583  3.01842e-22      182.063 
   366.606236  7.84475e-26     2011.403 
   367.369242  6.09368e-22      222.079 
   368.373992  1.54092e-26     1881.857 
   368.815492  2.62047e-25     1744.633 
   369.131298  1.10377e-26        6.346 
   370.279882  3.16796e-23       69.856 
   370.288072  2.75283e-26     2295.057 
   370.723497  7.91369e-25     1496.835 
   371.349599  3.27174e-24       90.569 
   371.631812  3.08304e-24      512.461 
   372.279854  7.30431e-23      126.202 
   372.323167  2.15764e-24     1268.051 
   372.437407  1.02395e-25     2009.387 
   372.984908  4.65564e-25     1107.086 
   373.605546  5.29638e-24     1058.321 
   373.755651  8.86501e-23      201.776 
   374.153744  1.25829e-24     1453.805 
   374.200255  2.63196e-25     1218.240 
   374.207073  3.02607e-24      317.621 
   374.322621  1.31425e-22      742.905 
   374.559380  1.16702e-23      867.678 
   374.745159  8.10922e-23      296.573 
   374.865308  1.87966e-24      730.978 
   375.170530  2.29710e-23      696.156 
   375.288799  6.14723e-23      410.581 
   375.421154  4.01125e-23      543.782 
   375.921976  1.04853e-24     1494.976 
   376.538026  6.13027e-23      938.099 
   376.670231  3.69725e-28     2744.238 
   376.821312  8.57194e-28     2575.898 
   377.223006  1.63976e-27     2871.610 
   377.481140  5.26841e-22      326.603 
   378.403024  1.32184e-21      128.271 
   379.092574  3.83777e-22       20.038 
   379.391389  6.91002e-22       90.569 
   379.498584  5.88138e-22      255.662 
   379.692191  8.48554e-26     1529.678 
   380.405040  7.22569e-27     2551.357 
   380.979089  1.03343e-26     2019.406 
   381.082050  4.39622e-26     1659.969 
   381.782838  1.24589e-27     2980.498 
   382.063469  4.89643e-27     2168.763 
   383.032501  4.80816e-22      242.885 
   383.289030  2.88855e-26     2249.937 
   384.859536  4.94970e-24     1128.640 
   385.486945  4.54862e-24      449.591 
   385.871482  1.04708e-25     1967.403 
   386.041014  6.03642e-24      236.058 
   386.716636  3.68705e-25     1742.646 
   387.268013  5.79001e-27     2653.945 
   388.147531  3.43621e-25     1703.802 
   388.338508  8.47772e-22      151.923 
   389.442622  2.02479e-23       64.119 
   390.110876  1.01925e-24     1459.179 
   390.493234  2.55140e-24     1305.001 
   390.522438  2.20384e-24      588.675 
   390.897884  2.42426e-26     2346.241 
   391.026175  2.02479e-22       29.033 
   391.038952  1.73772e-22      682.867 
   391.521959  6.81050e-23      117.272 
   391.670093  4.04743e-22      296.216 
   391.753597  2.72759e-24     1233.576 
   391.997448  1.38509e-24      812.674 
   392.634773  4.78717e-28     3154.660 
   392.772222  1.26380e-25     1411.361 
   393.008617  1.41605e-21      140.893 
   393.065868  6.56719e-24     1027.030 
   393.073876  9.14070e-23      189.650 
   394.035531  1.41768e-23      839.576 
   394.127457  8.81616e-23      281.250 
   394.135146  1.08712e-22      792.366 
   394.647523  2.72948e-23      671.246 
   394.719269  6.92914e-23      392.061 
   394.883164  4.65242e-23      522.066 
   394.945022  5.61797e-22      291.678 
   395.620126  6.22557e-22      287.922 
   396.098813  4.94970e-25     1529.131 
   396.151196  3.27325e-22      196.982 
   396.215239  2.28339e-27     2818.772 
   398.049800  3.17453e-25     1787.585 
   398.751503  4.92583e-23     1007.911 
   399.017566  2.10077e-22      601.701 
   399.491231  9.89417e-27     2501.669 
   400.694332  8.44072e-22      113.002 
   401.171150  9.53629e-26     2057.421 
   401.308999  3.35335e-22      436.205 
   401.629656  4.39015e-22       24.398 
   402.459949  3.88847e-26     2203.408 
   403.010166  2.51466e-22      304.851 
   403.861260  2.70196e-24      562.687 
   404.161848  1.06679e-27     3038.559 
   404.468518  3.18185e-22      212.454 
   405.117178  1.38541e-25     1924.038 
   405.816619  3.71005e-25     1180.604 
   406.208518  2.43713e-24      378.076 
   407.060560  2.76554e-24      357.341 
   407.457315  4.46662e-25     1663.608 
   408.070622  3.75560e-24     1203.123 
   408.583315  8.69119e-24       59.020 
   408.596770  5.00011e-27     2708.893 
   409.473290  1.30101e-24     1422.161 
   410.563927  7.14956e-22      252.018 
   410.655089  9.05064e-25      908.111 
   410.733016  6.03225e-23      108.981 
   411.156389  3.41648e-24     1199.739 
   411.515752  6.72325e-28     3099.308 
   411.539224  2.48702e-27     2310.664 
   412.210210  4.75751e-22      277.928 
   412.356624  9.20618e-23      178.165 
   412.495965  8.06639e-24      996.379 
   412.694952  1.54340e-21      154.002 
   412.695597  2.29868e-22      625.478 
   412.857555  5.82880e-28     2687.542 
   413.472307  9.43147e-23      266.568 
   413.479030  1.70561e-23      812.114 
   413.762237  5.31104e-22      330.103 
   413.797600  6.40736e-26     1615.954 
   413.946818  4.84595e-22       29.724 
   414.089725  3.21055e-23      646.976 
   414.112264  7.71044e-23      374.182 
   414.308660  5.33432e-23      500.991 
   414.406484  6.86878e-25     1007.911 
   415.196294  3.15485e-27     2766.564 
   416.058589  1.98600e-24       70.539 
   416.163399  7.40081e-27     2118.393 
   416.661482  2.16910e-26     2398.057 
   417.789921  9.55607e-25     1443.373 
   417.884603  8.26379e-26     2106.131 
   418.463640  1.05823e-27     2802.524 
   418.563770  1.34363e-26     2452.614 
   419.070938  5.31348e-22      222.079 
   419.195185  8.83241e-25     1579.184 
   419.781548  2.79370e-23     1170.060 
   420.141436  3.04845e-26     2118.261 
   421.614690  5.19253e-26     2157.512 
   421.903644  7.95022e-22      218.874 
   422.080094  5.40978e-22       18.659 
   422.517715  2.61625e-24     1280.384 
   423.892084  1.00712e-21      137.783 
   424.148593  2.03554e-23     1248.177 
   424.344136  1.81752e-25     1881.309 
   424.755789  2.22167e-25     1295.218 
   425.492039  1.40242e-22      444.894 
   425.503943  1.14731e-24      875.716 
   425.714118  3.70492e-24     1266.183 
   425.716707  9.01321e-28     3097.259 
   426.217775  1.08188e-23     1021.734 
   426.248880  3.89654e-23     1094.375 
   426.285319  1.66180e-24     1360.459 
   426.745787  5.75678e-25     1624.050 
   427.558432  2.09112e-24     1384.295 
   428.537940  1.63448e-21      167.768 
   428.811835  1.64657e-24     1385.781 
   429.917476  4.98287e-23      101.329 
   429.952418  8.54829e-22      188.460 
   429.983131  2.84695e-23      803.351 
   430.114371  1.14046e-24     1536.656 
   430.281028  3.32108e-22      228.533 
   430.388393  9.37301e-28     3044.585 
   430.532812  4.24306e-24     1166.542 
   431.103880  2.38275e-24      671.842 
   431.498355  1.07468e-21      179.871 
   431.607525  9.02982e-23      167.319 
   431.659023  4.00755e-23     1079.976 
   431.897310  9.81927e-24      966.368 
   432.132955  6.72016e-23      611.064 
   432.611597  4.33291e-27     2764.477 
   432.782980  9.92383e-23      252.527 
   432.891595  2.03273e-23      785.293 
   432.969737  3.51787e-26     1749.688 
   433.470473  8.46992e-23      356.944 
   433.499123  3.73921e-23      623.347 
   433.699995  6.05033e-23      480.557 
   434.166675  4.32394e-27     2714.988 
   434.676949  4.10941e-22      334.820 
   435.030722  1.98189e-24      642.388 
   435.115756  3.72031e-27     2271.174 
   435.379804  8.89773e-22      160.735 
   435.848712  4.96797e-22      370.919 
   436.210518  1.86500e-26     2450.533 
   436.417788  3.01703e-22      570.808 
   436.799580  5.32573e-24      202.948 
   436.997069  2.68893e-26     1786.286 
   437.623246  1.81125e-26     2404.192 
   437.729025  2.32959e-24      615.238 
   437.742710  8.22393e-22      234.333 
   438.103994  8.67320e-22      202.904 
   438.431836  7.66619e-22      268.321 
   438.528702  9.57148e-23      855.979 
   438.857501  3.13747e-25     1833.100 
   438.903444  8.96766e-22      135.665 
   439.057251  8.97179e-22      174.047 
   439.915916  4.94060e-24      403.443 
   440.197704  1.50966e-23     1328.636 
   440.238191  9.07359e-22      147.769 
   440.562071  2.90723e-25     1256.431 
   440.690545  7.04335e-22      304.851 
   440.753937  6.87827e-26     2112.251 
   441.125784  8.74137e-22      113.219 
   441.160646  2.48530e-24      399.392 
   441.174032  5.96457e-22       21.207 
   441.391749  8.93674e-22      124.072 
   441.872643  5.49641e-23     1021.212 
   442.177214  3.24399e-22      245.178 
   442.368490  8.52863e-22      102.956 
   442.490686  8.20690e-22       93.374 
   442.690360  5.45229e-22       35.180 
   443.007063  2.57383e-25     1879.367 
   443.106678  7.82851e-22       84.417 
   443.301746  7.35833e-22       76.115 
   443.322284  4.62678e-22      315.315 
   443.553150  2.36635e-25     1839.215 
   443.607029  6.81364e-22       68.450 
   443.759311  6.18414e-22       61.430 
   443.907075  5.46738e-22       55.049 
   443.995151  4.65457e-22       49.309 
   444.059883  3.73576e-22       44.208 
   444.097798  2.68831e-22       39.747 
   444.119110  1.47123e-22       35.923 
   445.052144  6.39263e-22      343.905 
   445.532602  2.01316e-25        6.346 
   445.662015  5.81272e-22       42.076 
   446.013867  7.36003e-25     1585.130 
   447.082564  2.23758e-24      421.292 
   447.275249  1.74092e-21      182.063 
   447.897270  1.55482e-24       13.280 
   447.981198  1.96689e-22      656.899 
   448.127577  2.06671e-24     1350.040 
   448.662723  7.59765e-28     3156.594 
   448.811048  3.28533e-22      483.069 
   449.079357  3.70834e-23       94.317 
   449.253120  1.29712e-27     2990.491 
   449.531472  1.17079e-21      164.876 
   449.651565  4.75203e-26     1704.529 
   449.884155  5.22492e-24     1133.983 
   450.644440  7.66089e-26     2155.450 
   450.830173  8.57984e-23      157.113 
   451.271338  1.18517e-23      936.996 
   452.012371  5.74089e-22      385.457 
   452.062461  1.02560e-22      239.126 
   452.274889  2.40038e-23      759.112 
   452.796567  9.18077e-23      340.347 
   452.877656  4.31101e-23      600.360 
   452.949533  5.20091e-27     2219.668 
   453.059407  6.78702e-23      460.764 
   453.126878  5.88409e-27     2664.042 
   453.525606  3.66758e-27     2820.709 
   453.698062  5.75678e-24       22.662 
   456.670235  2.42314e-26     2356.402 
   456.753706  7.69625e-25      974.629 
   459.535911  3.89834e-22      518.906 
   459.878364  9.04439e-26     2067.624 
   460.150247  1.61428e-24     1466.285 
   460.271031  6.60966e-22       24.394 
   460.502561  9.34285e-25      941.076 
   460.746762  2.14378e-22       41.754 
   460.836602  7.09707e-25     1666.035 
   460.964639  4.59388e-22      414.107 
   461.125014  1.96598e-25     1328.636 
   461.981009  5.10716e-22      429.484 
   462.745000  3.05689e-25     1797.757 
   463.536366  6.42213e-26     2205.469 
   463.540996  7.03849e-26     2016.652 
   463.836235  1.82045e-21      196.982 
   464.060682  9.96046e-25       52.971 
   464.237845  7.78537e-23      950.659 
   464.269644  1.65226e-26     2503.634 
   464.955882  3.29518e-22      262.418 
   464.957717  1.40922e-23       34.438 
   465.262460  9.34070e-25     1546.847 
   467.421563  2.57383e-24     1314.936 
   467.902481  1.13679e-23     1411.361 
   468.110349  1.78229e-27     2937.027 
   468.222289  2.30664e-23       87.943 
   469.211473  6.38233e-24     1102.063 
   470.027893  7.84114e-23      147.547 
   470.126325  6.30782e-28     3216.570 
   470.619447  1.41801e-23      908.264 
   471.313795  1.03939e-22      226.365 
   471.630529  2.80983e-23      733.571 
   472.077391  7.95205e-27     2613.728 
   472.092971  9.81927e-23      324.390 
   472.129034  3.42199e-22      343.905 
   472.153558  1.27520e-21      210.196 
   472.182796  1.78640e-25     1374.508 
   472.227196  4.92243e-23      578.012 
   472.389077  7.52973e-23      441.611 
   472.739918  1.97460e-24      670.116 
   473.441082  6.67697e-22       57.123 
   473.891380  3.27853e-23     1154.253 
   474.873102  5.27326e-24     1601.870 
   475.243541  4.50484e-22      475.959 
   475.341669  7.06121e-22      255.662 
   475.705308  3.21869e-26     2309.246 
   475.938805  4.41855e-22      355.043 
   476.108880  2.19523e-24      443.774 
   476.127698  4.03255e-22      375.743 
   476.645363  2.23707e-25     1334.569 
   477.426116  1.71901e-24      698.428 
   477.631854  1.32397e-21      194.264 
   478.081624  7.80691e-24     1513.184 
   478.860765  3.13891e-27     2877.573 
   478.988629  1.18081e-25     2023.632 
   479.152273  3.21425e-22      280.233 
   479.309992  7.31104e-22       28.220 
   480.055437  4.92469e-22      469.803 
   480.965132  2.84105e-27     2685.270 
   481.531765  2.67657e-26     1841.709 
   481.847618  9.44668e-25      938.099 
   481.920450  3.92084e-25     1756.935 
   481.927165  1.38637e-26     2557.406 
   482.025135  1.90318e-21      212.454 
   483.510733  3.61892e-24     1692.934 
   483.642415  2.56554e-23       48.564 
   484.492449  1.17647e-24     1509.201 
   484.689082  2.68274e-27     2375.875 
   486.402161  6.42213e-22       48.472 
   486.556021  1.99609e-24      466.839 
   486.596250  1.16837e-24     1551.003 
   486.694814  3.18185e-24     1280.471 
   486.698164  3.45843e-26     1795.404 
   486.960493  2.43321e-27     2884.192 
   487.309387  2.00484e-25     1973.769 
   487.349831  9.62231e-24       82.207 
   488.369420  8.36333e-23      921.809 
   488.516151  7.73356e-24     1070.783 
   488.762719  4.19449e-22      459.655 
   489.203852  6.81521e-23      138.620 
   489.942961  1.68298e-23      880.172 
   490.440474  1.09870e-22      882.798 
   490.539553  1.03010e-22      214.244 
   490.740296  1.00272e-24     1622.117 
   490.802193  3.58162e-27     2323.230 
   490.960031  3.25971e-23      708.670 
   491.018694  1.06728e-26     2564.046 
   491.362195  1.03485e-22      309.074 
   491.549487  5.56646e-23      556.305 
   491.691096  8.25999e-23      423.099 
   491.788161  1.17052e-23     1426.969 
   491.937057  3.94075e-22      524.858 
   492.770964  4.62359e-27     2204.494 
   492.883307  4.28134e-24      172.252 
   492.899151  3.49043e-24     1344.018 
   493.634026  1.47598e-25     1917.848 
   494.299857  2.58928e-25     1926.154 
   494.729022  4.24697e-26     2262.722 
   495.286969  3.12377e-22      532.227 
   496.511321  7.47445e-25     1008.755 
   496.512517  2.85482e-24      615.011 
   496.919711  6.05312e-22      423.500 
   497.055643  7.43326e-22       74.869 
   498.085382  1.53101e-25     1980.274 
   498.409999  1.80459e-22      714.353 
   498.433553  8.05155e-22       32.683 
   498.933605  2.60663e-27     2935.091 
   498.995036  1.96462e-21      228.533 
   499.858269  5.43850e-25     1755.545 
   499.976303  3.19874e-22      298.638 
   500.228123  1.09794e-23     1091.907 
   500.474088  6.30492e-25     1043.465 
   501.080251  4.99435e-25     1716.749 
   501.305189  6.94671e-28     3167.757 
   501.688237  5.01163e-24      359.653 
   501.920146  1.78599e-22      491.811 
   502.174327  2.78535e-26        1.908 
   502.378080  5.97144e-26     2256.069 
   503.704700  1.47089e-24     1472.192 
   504.462074  2.52336e-24     1786.286 
   505.009918  7.87915e-25     1638.486 
   505.803958  3.29974e-27     2831.988 
   505.948328  3.90373e-24     1246.643 
   506.314171  8.64130e-24     1496.295 
   507.799131  9.30206e-24     1040.141 
   507.837645  1.45640e-21      225.946 
   508.361015  5.52560e-23      130.331 
   508.502171  1.64429e-24      727.319 
   508.926078  3.12018e-23      865.822 
   509.134958  4.81814e-26     2307.408 
   509.243317  1.98143e-23      852.720 
   509.667597  4.14361e-22      397.107 
   509.742703  9.94900e-23      202.762 
   509.951262  1.42324e-26     2514.995 
   509.961475  7.22569e-22      379.976 
   510.079284  2.81825e-25     1821.885 
   510.265091  3.74869e-23      684.410 
   510.606533  1.07394e-22      294.397 
   510.846501  6.23418e-23      535.238 
   510.891158  1.43641e-21      242.885 
   510.967490  8.95528e-23      405.227 
   511.423846  3.70834e-23       65.014 
   511.601017  1.90625e-24      490.486 
   512.042373  3.41648e-22      576.158 
   512.086023  7.95388e-23      665.786 
   513.432993  1.22202e-26     2611.788 
   513.433702  4.91676e-25     1728.769 
   513.519658  3.92536e-25       37.920 
   513.603206  1.68997e-25     1415.016 
   513.741928  5.56646e-26     2216.832 
   513.826461  1.76677e-23     1343.319 
   515.605438  3.10513e-22      317.621 
   516.082241  3.83777e-22      418.990 
   516.813241  8.11483e-22       95.294 
   516.870690  2.02199e-21      245.178 
   517.041586  1.38255e-25     1456.108 
   517.169258  1.97187e-25     1937.551 
   517.207808  4.47280e-26     1692.934 
   517.246989  8.80196e-22       37.795 
   517.525470  1.53348e-22      817.693 
   518.148087  1.44737e-24      756.793 
   518.828308  3.77902e-22      507.551 
   519.611887  8.38261e-22      339.195 
   520.047094  9.52093e-28     3113.035 
   520.225139  6.31800e-25     1677.199 
   522.900063  1.82675e-24     1435.820 
   523.261316  2.67534e-23     1230.722 
   524.494357  2.46933e-26     1888.577 
   524.641146  4.44815e-27     2780.414 
   524.977081  1.73812e-24      514.716 
   525.183083  4.75532e-24     1213.454 
   526.211213  2.21044e-27     2993.233 
   526.321813  6.21412e-22      444.894 
   526.555073  9.46410e-22      301.119 
   526.931415  5.30859e-22      491.811 
   527.061695  1.11014e-23     1010.138 
   527.099330  7.18256e-22      400.535 
   527.381955  1.95830e-26     1936.030 
   527.502169  4.03626e-23      122.681 
   527.725517  8.70722e-22      291.678 
   527.921483  9.98342e-27     2666.863 
   528.521693  2.31408e-23      825.907 
   528.765127  8.18049e-22      358.750 
   528.875560  1.88573e-26     2466.576 
   528.925487  9.31921e-23      191.919 
   529.297435  2.41813e-27     2429.079 
   529.458062  4.48311e-22      541.267 
   529.547021  4.27444e-23      660.789 
   529.828214  1.09592e-22      280.360 
   530.119754  6.91320e-23      514.811 
   530.220209  9.59355e-23      387.995 
   530.315322  1.50169e-25     2070.802 
   530.333074  1.07939e-24     1998.962 
   530.492020  6.87036e-25     2100.565 
   530.889356  9.16810e-22      319.551 
   531.429899  1.85772e-27     2482.865 
   531.477439  1.04203e-21      265.712 
   531.760639  6.96754e-27     2570.730 
   532.744567  7.24902e-26     2171.576 
   533.134952  1.00944e-21      282.945 
   533.153630  5.87191e-25     1078.752 
   533.373467  8.75748e-22      118.366 
   534.069306  2.06196e-21      262.418 
   534.169650  7.14956e-22       64.256 
   534.416326  3.74955e-22      593.238 
   534.947789  1.11938e-21      232.947 
   535.005641  3.96624e-25     1847.738 
   535.201742  3.04214e-22      337.191 
   535.265197  1.09038e-21      248.934 
   535.392521  2.93481e-22      629.839 
   536.240886  2.52336e-25     1895.463 
   536.577324  9.56708e-22       43.531 
   537.136810  1.15313e-21      217.518 
   537.276364  1.78147e-24     1881.857 
   537.390915  1.17376e-21      202.801 
   538.683237  1.19201e-21      188.693 
   538.785027  1.29712e-27     3058.941 
   539.106367  1.19972e-21      175.258 
   539.195784  4.37904e-22      385.457 
   539.355835  7.93925e-25     1638.285 
   539.614356  1.05361e-21       32.738 
   539.649358  1.55876e-21      259.927 
   539.826794  2.91058e-25     1248.177 
   539.893801  1.20110e-21      162.454 
   539.905635  2.10126e-22       56.859 
   539.973717  2.87991e-22      583.690 
   540.300314  1.19283e-21      150.305 
   540.793513  1.17592e-21      138.796 
   541.019364  7.20078e-23      989.864 
   541.055342  5.23696e-25        6.346 
   541.115225  1.14863e-21      127.933 
   541.392319  2.66612e-23     1262.325 
   541.426519  1.11142e-21      117.712 
   541.652392  1.06311e-21      108.134 
   541.717924  1.71743e-24     1899.778 
   541.844214  1.00387e-21       99.198 
   541.987024  9.32780e-22       90.902 
   542.079368  2.25309e-24     1400.085 
   542.097696  8.49531e-22       83.247 
   542.177438  7.53146e-22       76.232 
   542.233547  6.42509e-22       69.856 
   542.257673  3.10727e-22      647.698 
   542.270129  5.15916e-22       64.119 
   542.291785  3.70578e-22       59.020 
   542.302297  2.01548e-22       54.560 
   542.321593  5.01048e-25     1114.620 
   542.984626  2.10223e-22      755.391 
   543.218532  4.44098e-25     2204.494 
   543.472450  5.95908e-27     2729.470 
   544.176029  3.81574e-22      441.503 
   544.400032  5.75148e-24     1180.902 
   544.719637  1.34580e-24      786.846 
   544.771958  1.79920e-27     3052.040 
   546.304885  1.31546e-23      980.774 
   546.629913  2.46252e-23      115.670 
   547.415732  1.62772e-24      539.528 
   547.613489  9.39246e-22      144.037 
   547.779682  2.68151e-23      799.733 
   547.792049  2.48359e-26     2418.789 
   548.090393  8.40000e-23      181.716 
   548.265635  1.55088e-21      277.928 
   548.333613  1.61428e-22      774.076 
   548.807215  4.83147e-23      637.807 
   549.029372  1.09744e-22      266.963 
   549.370664  7.58891e-23      495.024 
   549.451135  1.01456e-22      371.403 
   549.682793  4.45122e-23       83.781 
   550.722393  3.35490e-22      557.788 
   551.077250  1.25337e-25     1497.772 
   551.699871  2.93278e-22      357.341 
   551.737473  9.38381e-26     2126.953 
   551.767286  2.09305e-21      280.233 
   552.130565  3.14253e-24      144.037 
   553.329138  2.55493e-22      704.621 
   553.583420  6.58536e-24     1583.405 
   553.993272  2.08439e-25     2021.811 
   554.299238  3.49526e-26     2411.956 
   554.708257  1.02891e-21       49.947 
   554.798533  3.55532e-22      464.563 
   555.300879  3.20833e-25     1854.010 
   557.046036  4.53711e-26     2359.280 
   557.121367  8.60160e-25     1710.186 
   557.519322  1.75703e-27     3005.477 
   557.604147  1.18872e-24      817.482 
   558.108905  1.23305e-24      870.607 
   558.473049  9.91241e-25     1600.008 
   558.717549  1.12662e-21       35.923 
   559.878134  1.03724e-25     1540.018 
   560.590148  1.00364e-21      172.252 
   561.243430  2.76045e-24     1364.988 
   561.696029  2.49505e-22      685.885 
   562.298262  7.93559e-27     2679.157 
   562.636282  1.48176e-24      564.922 
   562.699980  1.72934e-26     1984.050 
   562.756044  2.75600e-24     1803.113 
   562.909013  1.08313e-25       25.432 
   563.600112  6.90843e-24     1148.989 
   564.583514  8.81007e-27     2722.522 
   564.750596  2.74144e-25     1942.642 
   565.148226  2.81501e-22      695.911 
   565.529773  1.54732e-23      952.049 
   565.746667  1.00596e-23      109.297 
   566.701181  3.25147e-26     2371.635 
   566.918420  3.20759e-24     1424.463 
   567.017617  3.08304e-23      774.198 
   567.239689  7.20243e-23      172.151 
   567.842152  2.08439e-22      763.980 
   568.047383  5.41227e-23      615.466 
   568.111216  1.60059e-27     2537.215 
   568.212053  1.07542e-22      254.205 
   568.569734  4.76518e-24      318.295 
   568.601560  8.24478e-23      475.876 
   568.625233  2.91058e-25     2310.664 
   568.662081  1.05847e-22      355.450 
   568.964687  3.23206e-24      560.555 
   569.091514  2.10853e-21      298.638 
   569.377267  1.56848e-26     2458.973 
   570.147599  4.53189e-25     1151.066 
   570.537957  2.83648e-22      378.076 
   570.721169  1.20720e-25     2082.964 
   570.779557  9.85778e-25       74.335 
   571.033644  1.30161e-24       94.171 
   571.089845  1.38797e-26     2032.650 
   571.168615  1.08113e-25     2170.481 
   571.405997  3.99282e-23     1184.062 
   572.591378  1.62510e-21      296.216 
   573.527283  1.06827e-21      202.948 
   573.989860  6.98038e-27     2778.907 
   574.349843  4.05489e-25     1813.193 
   574.797858  1.10301e-21       56.942 
   574.927127  1.51768e-27     3111.459 
   575.921045  1.24532e-27     2592.142 
   576.075314  1.00411e-21      330.103 
   576.250310  2.36635e-27     2952.641 
   577.084538  2.16311e-23     1309.387 
   577.275732  6.44435e-25       56.859 
   577.577476  1.22993e-24     1562.366 
   577.816780  1.20970e-21       39.747 
   578.239697  2.17110e-22      541.267 
   578.776203  1.53031e-24      116.359 
   579.199616  3.44968e-22      488.231 
   580.393047  3.36031e-24     1330.528 
   580.568386  1.26642e-24     1979.596 
   580.876479  1.08462e-23     1164.687 
   581.118966  1.05070e-26     2629.475 
   581.178486  1.08263e-24      848.698 
   581.687603  2.99488e-24       13.280 
   582.710680  2.57917e-22      637.462 
   582.740071  3.88221e-25     1188.093 
   582.784236  8.24289e-24     1117.715 
   583.118547  1.04347e-25     2551.279 
   583.301800  3.67011e-22      639.244 
   583.399472  1.36735e-24      590.898 
   584.020492  2.93413e-22      610.358 
   584.720648  1.61726e-21      315.315 
   584.733138  8.16543e-27     2100.565 
   584.737403  1.80709e-23      923.963 
   585.603404  4.23135e-26     2325.113 
   585.857192  1.68764e-22      825.750 
   586.237581  3.51625e-23      749.303 
   586.352461  6.26007e-26     2665.712 
   586.375518  5.76208e-23      163.225 
   586.688533  2.11387e-21      317.621 
   587.268573  6.01007e-23      593.764 
   587.321378  1.78640e-25     2040.290 
   587.378212  1.02773e-22      242.086 
   587.549921  2.71381e-22      399.392 
   587.687627  7.49513e-22       82.513 
   587.730394  1.13078e-21      236.058 
   587.813310  8.86093e-23      457.369 
   587.854792  1.08813e-22      340.137 
   588.801453  9.12808e-26     1582.837 
   589.696171  1.54376e-25     2039.609 
   589.848053  3.45764e-25       41.754 
   590.571500  2.09787e-22      744.280 
   590.818443  4.43077e-24     1709.062 
   590.947485  1.20859e-27     3171.560 
   591.217115  1.16327e-21       64.696 
   592.191715  1.76189e-25     2439.219 
   592.571607  3.21573e-22      512.461 
   592.780863  3.31726e-23      930.886 
   593.142207  3.24548e-26     2350.043 
   593.388371  5.09307e-25     1773.010 
   594.087148  6.07406e-23     1060.159 
   594.407167  9.07568e-23      723.078 
   594.861956  1.63222e-24      140.893 
   594.978316  3.16869e-27     2900.436 
   596.124148  9.55167e-25      880.495 
   596.516743  1.40469e-22      836.082 
   596.669798  1.51628e-24     1525.362 
   596.909046  1.29831e-21       44.208 
   597.519231  4.65778e-22      585.365 
   598.493100  2.45346e-26     2519.120 
   599.528999  4.06330e-24     1296.705 
   599.550556  4.59493e-23      104.865 
   599.752251  1.23959e-24      617.456 
   599.934941  1.38350e-26     2580.424 
