freq (GHz)   S (cm-1/mol/cm^2)  E_low (cm-1) 
   100.095614  4.81703e-27     2106.148 
   100.563007  1.02442e-25     1414.908 
   100.878105  1.58518e-24        5.382 
   102.690061  5.63611e-24      464.345 
   102.707252  1.12948e-24      890.699 
   103.807617  3.68620e-26     1658.226 
   104.029418  2.14427e-23        1.912 
   104.033582  2.06814e-23       92.118 
   104.239295  6.12180e-23       34.550 
   104.915582  1.84875e-26     1831.029 
   106.674828  3.51787e-24      608.186 
   106.692524  5.56774e-29     3103.126 
   106.898712  1.19696e-26     1920.690 
   107.060209  1.04756e-23      253.170 
   107.843470  1.37937e-23       73.551 
   108.915423  4.70413e-25      612.834 
   108.955915  4.97484e-24      558.138 
   109.740407  6.41622e-26     1575.030 
   109.757585  1.53631e-23      136.782 
   109.830663  3.51220e-27     2202.254 
   110.363800  1.95020e-24      771.353 
   111.293830  2.85943e-28     2767.809 
   111.755021  6.22271e-24      327.708 
   111.875541  2.80143e-24      714.754 
   112.595147  9.32136e-28     2502.871 
   113.970873  9.68455e-25      953.812 
   114.565370  9.13018e-24      289.053 
   115.090705  2.03039e-25     1338.191 
   115.184464  2.24068e-28     2822.490 
   115.317557  1.49479e-23      219.286 
   115.904939  1.42718e-25     1096.784 
   116.023203  1.33499e-27     2451.453 
   116.980440  5.70400e-23       18.825 
   117.412612  4.31598e-25     1155.534 
   117.590456  4.87954e-29     3161.056 
   118.577430  2.21656e-23      175.236 
   118.994236  1.20720e-23      321.230 
   119.483080  1.22540e-24      356.530 
   119.621933  5.71320e-25     1120.555 
   120.023400  1.10250e-24      684.519 
   120.712912  1.73133e-25     1376.486 
   120.909309  5.66473e-27     2154.111 
   123.057690  9.47718e-24       24.671 
   123.194700  8.61151e-24      442.520 
   123.855622  6.26007e-26     1616.629 
   124.655301  2.80272e-27     1882.365 
   124.864740  1.68182e-23       65.306 
   125.427130  1.51558e-24      168.493 
   125.870241  2.17961e-26     1875.834 
   126.837903  2.04446e-26     1875.924 
   126.906466  6.03364e-29     3161.151 
   126.962460  5.40480e-24      583.167 
   126.980700  1.03772e-23      442.748 
   127.081960  1.51943e-24      922.152 
   127.428230  1.84833e-23      284.803 
   128.103810  3.27702e-24      743.034 
   128.605130  1.25771e-22       53.108 
   129.105830  4.41448e-23       48.801 
   129.514810  1.07865e-22       38.026 
   129.651671  6.03642e-27     2154.326 
   130.680010  3.02468e-24      743.135 
   130.859400  1.48416e-23      341.048 
   131.014860  8.94086e-23       48.738 
   131.164549  7.63096e-26     1616.669 
   131.274930  2.11485e-23      125.184 
   131.719549  3.11659e-28     2822.702 
   131.999183  1.75299e-27     2105.041 
   132.290221  1.61317e-27     2451.789 
   132.744860  1.45640e-22       70.722 
   134.004860  8.95528e-23       25.518 
   134.203820  1.51384e-24      922.403 
   134.746051  3.90642e-28     2768.261 
   134.943300  2.04870e-23      204.543 
   135.696020  5.53834e-23        6.360 
   135.963000  1.31486e-23      420.794 
   136.129175  2.40314e-25     1376.659 
   136.682912  1.46480e-27     2503.205 
   137.011654  8.57589e-29     3103.690 
   137.585050  6.80423e-25     1120.938 
   139.355060  8.80196e-24       20.294 
   139.474540  1.70836e-23      303.254 
   140.306170  6.92754e-23       15.614 
   140.800160  2.75156e-25     1338.707 
   141.757804  6.25431e-27     2202.714 
   142.690180  6.99486e-25     1155.843 
   143.057110  1.69934e-22       90.817 
   143.357800  1.23106e-23      421.351 
   143.851420  1.00387e-25     1575.674 
   144.127521  2.88921e-26     1410.067 
   145.970290  1.75259e-24      954.265 
   146.393720  8.20501e-24      583.184 
   146.550080  2.04352e-23       57.550 
   146.605520  4.64172e-23        8.336 
   146.730710  3.30734e-26     1831.798 
   147.070617  2.42873e-26     1921.281 
   147.170988  6.19554e-29     3219.809 
   147.239280  7.84475e-24      558.793 
   149.432768  9.85551e-27     2107.037 
   150.381100  2.63863e-23      114.309 
   150.486920  7.77999e-24      608.954 
   150.878810  4.44098e-24      715.565 
   151.378630  1.93811e-23        3.697 
   151.950856  2.65937e-27     2401.343 
   152.216275  3.22834e-28     2878.230 
   152.303302  8.53256e-26     1658.952 
   153.677140  2.88855e-24      627.131 
   154.278342  6.50248e-28     2714.667 
   154.373340  2.24895e-24      891.639 
   155.389620  2.69389e-23      190.419 
   156.408230  1.44205e-28     3046.955 
   157.135253  1.74936e-23      381.827 
   157.393760  1.52996e-27     2555.594 
   157.687230  1.02183e-24     1086.985 
   157.769874  1.84663e-25     1005.162 
   157.966212  4.16946e-26     1516.430 
   158.199740  3.47600e-23        5.382 
   158.427745  2.74397e-25     1415.771 
   158.845080  4.49034e-24      771.938 
   159.447960  2.28444e-23      285.940 
   160.342990  2.00115e-22      113.336 
   160.543060  7.12819e-24       16.395 
   160.827880  1.42850e-22       29.185 
   160.830853  4.17907e-25     1301.570 
   162.764011  6.59902e-27     2251.957 
   162.973277  7.81591e-25     1191.784 
   163.119376  5.67910e-23      113.244 
   163.567680  1.68259e-23      400.825 
   163.605530  1.23959e-22       65.264 
   163.795870  1.54127e-25     1535.359 
   163.924727  1.43641e-23      488.515 
   165.123634  2.22320e-23       50.538 
   165.144651  6.28028e-23       10.886 
   165.225452  1.12042e-22       13.313 
   166.387121  7.34648e-25      667.972 
   166.579266  5.13428e-26     1788.311 
   167.367355  1.08838e-23      535.068 
   167.494044  6.10772e-29     3279.098 
   167.655968  5.05335e-25     1023.547 
   168.178984  2.58273e-26     1967.369 
   168.790068  1.94930e-24      197.833 
   169.175236  1.54732e-26     2060.385 
   170.293820  1.72655e-24      398.776 
   170.754547  3.18478e-23      104.035 
   171.018066  6.25575e-24      688.641 
   171.036690  4.59599e-24      801.532 
   171.578280  4.22162e-27     2351.533 
   172.210333  2.70321e-28     2530.367 
   172.728569  2.13884e-24      987.015 
   172.767498  3.21425e-28     2934.392 
   173.782302  1.04395e-27     2661.706 
   174.121906  9.21678e-26     1701.879 
   174.463854  3.21055e-24      861.520 
   175.101321  3.36031e-23      176.962 
   175.275721  9.15123e-23       18.825 
   175.781007  2.34196e-28     2990.851 
   176.295893  5.92351e-24      572.494 
   176.466251  1.71822e-23      425.330 
   177.567806  4.76957e-29     3338.913 
   177.729253  1.47836e-24     1053.676 
   178.214525  1.54021e-27     2608.620 
   178.797806  2.45346e-28     2671.331 
   179.006105  3.76166e-24       13.226 
   179.375073  2.95379e-25     1455.533 
   179.560954  2.94360e-23      269.265 
   180.045278  5.06616e-23      204.139 
   180.805043  6.12321e-25     1265.077 
   182.705890  1.10683e-22       64.627 
   183.582710  2.21248e-23      380.950 
   183.691810  2.28707e-25     1495.686 
   183.768345  6.70933e-27     2301.839 
   184.969800  2.36037e-22      138.227 
   185.278600  2.29498e-23       44.115 
   186.384957  7.71399e-26     1745.464 
   187.055407  1.42685e-23      471.592 
   187.337936  1.00249e-23      520.643 
   187.370330  3.63730e-23      321.458 
   187.432931  8.82631e-25     1228.366 
   187.446750  1.45874e-23      511.989 
   187.869022  5.82880e-29     3339.020 
   188.654973  1.22062e-22       29.185 
   188.880553  2.35385e-26     2014.370 
   189.575300  2.23244e-24     1020.434 
   189.666557  2.66182e-26     2014.100 
   190.148650  3.63479e-23       94.435 
   191.020890  1.00549e-23      662.398 
   191.067230  8.52078e-24      662.363 
   191.173614  6.50248e-27     2302.358 
   192.236180  2.25050e-23      465.180 
   192.651020  5.34539e-23        2.321 
   193.258901  1.62847e-27     2609.379 
   193.401227  3.10298e-28     2991.188 
   193.609490  1.97324e-22       22.727 
   194.491750  4.44098e-24      832.047 
   195.080440  4.05489e-23      164.140 
   195.130778  3.69896e-28     2935.380 
   195.277926  4.02327e-27     1978.314 
   195.320700  2.90054e-22      172.676 
   195.326350  9.54947e-26     1745.452 
   196.783317  7.62921e-29     3280.305 
   197.142180  2.95175e-22      144.398 
   197.585307  1.68066e-23      536.946 
   197.709450  2.07481e-24     1021.012 
   198.847860  1.23504e-23      635.281 
   199.071872  1.50376e-27     2662.284 
   199.415876  3.66083e-23      253.243 
   200.287530  2.88855e-22      203.463 
   200.726688  8.71725e-25     1229.226 
   200.809180  1.63561e-22       84.118 
   202.511434  3.15050e-25     1495.937 
   203.391550  2.80724e-22       41.953 
   203.540640  3.30050e-25     1456.654 
   203.570150  2.82214e-23      361.720 
   204.121452  7.78716e-27     2003.168 
   204.246760  3.01356e-22      118.685 
   204.384300  2.15764e-23       38.368 
   204.996848  6.63559e-27     2352.361 
   205.300570  1.54518e-22       41.953 
   206.149588  1.12844e-25     1703.257 
   206.786939  9.13018e-25     1265.607 
   207.421380  1.89836e-23      489.557 
   208.302800  6.03086e-24      831.727 
   208.309385  5.41726e-29     3399.573 
   208.550003  3.48963e-26     1968.994 
   208.700320  7.01907e-23        3.697 
   209.874370  1.33039e-24      952.987 
   209.936050  3.99190e-23       85.465 
   210.738001  9.76966e-27     2253.820 
   210.906476  2.65754e-26     2061.472 
   211.053100  1.12922e-23      636.731 
   211.104704  3.82190e-26     1493.233 
   212.709071  2.47959e-27     2557.685 
   213.068400  2.92940e-22      236.696 
   213.703000  5.54089e-24      862.648 
   214.084926  2.91930e-28     3048.620 
   214.451890  5.98383e-24      803.218 
   214.458331  5.70794e-28     2880.540 
   214.689380  3.04986e-22       95.588 
   214.728330  4.72041e-23      151.971 
   215.094540  2.30611e-24      229.521 
   215.980524  1.19283e-28     3222.327 
   216.643300  2.75981e-22      165.450 
   217.149011  1.39855e-25     1430.104 
   217.633349  2.83974e-24      988.991 
   217.677148  9.72925e-26     1789.667 
   219.275976  4.42669e-23      237.864 
   220.072634  1.43311e-27     2716.584 
   220.102680  2.60303e-24     1054.478 
   220.597140  1.21110e-24     1194.017 
   220.618500  2.34088e-25     1075.500 
   221.900105  5.51670e-29     3002.109 
   221.965210  3.16504e-22       34.550 
   222.869134  2.09016e-24      443.365 
   223.116329  3.18698e-25     1536.993 
   223.344614  4.65350e-25     1418.263 
   223.434470  3.50412e-23      343.137 
   223.883569  1.82087e-23       33.247 
   224.264811  1.18326e-22      136.917 
   224.473434  9.07777e-25      725.448 
   225.153702  1.88356e-22       57.117 
   225.874607  1.61428e-25     1661.689 
   226.152812  6.39704e-27     2403.522 
   226.300027  3.02120e-22       75.150 
   226.508292  1.71822e-23      588.067 
   227.335798  2.41035e-23      467.770 
   228.184940  5.06267e-26     1924.255 
   229.347628  4.18484e-23       77.149 
   229.749739  1.13967e-23      718.486 
   230.272524  1.43741e-26     2205.917 
   230.954380  3.52679e-28     2620.223 
   230.965245  1.46177e-23      611.744 
   231.311264  5.81941e-28     2508.883 
   232.133733  3.69896e-27     2506.626 
   232.756207  2.60423e-26     2109.487 
   233.345490  2.51177e-24     1089.211 
   233.400921  9.85551e-25     1303.484 
   233.764429  8.63335e-28     2826.332 
   234.187053  3.01494e-22      272.311 
   234.353010  7.88459e-24      775.034 
   234.421586  5.33555e-23      140.444 
   234.868565  2.68893e-28     3106.685 
   235.151720  9.07568e-23        5.382 
   235.160067  1.82928e-28     3164.978 
   236.216685  2.22833e-22       82.937 
   237.068870  2.89121e-22       57.398 
   237.501904  3.80434e-24      957.613 
   238.166382  4.09053e-24      105.299 
   238.830779  9.57148e-26     1834.529 
   238.975927  2.22782e-28     2733.779 
   238.992532  5.21290e-23      223.132 
   239.832816  3.81750e-24       84.118 
   240.418919  1.64846e-24     1159.451 
   240.942791  2.05863e-22      105.299 
   241.044660  2.89387e-24      885.167 
   241.079842  1.33653e-27     2771.521 
   241.311107  1.00573e-27     2399.739 
   241.615798  1.16971e-22        8.336 
   242.113195  2.96128e-28     2641.336 
   242.997814  4.17810e-24      128.811 
   243.087647  1.27991e-23       28.776 
   243.105322  6.43249e-25     1380.512 
   243.245432  4.25186e-23      325.199 
   243.687280  1.08462e-28     2882.408 
   244.254218  4.67821e-22       57.117 
   245.339229  9.27640e-23      235.619 
   245.561623  2.26454e-25     1620.761 
   245.563423  2.62833e-22       42.347 
   247.169767  2.99488e-23      446.629 
   247.499706  3.25671e-25     1578.690 
   247.645864  6.05591e-27     2455.323 
   247.786613  7.20907e-26     1880.155 
   248.057401  2.22474e-22       74.663 
   248.116273  5.06733e-27     2058.814 
   248.436935  3.27400e-24       65.264 
   248.453932  7.83934e-27     1960.228 
   248.830824  4.18581e-23       69.471 
   248.995115  1.55231e-23      641.914 
   249.778264  2.07673e-26     2158.651 
   250.816786  1.85387e-23      587.402 
   250.987554  9.60460e-25     1342.030 
   251.199675  4.72041e-22       48.738 
   251.210586  2.21809e-22       29.988 
   251.533783  5.42100e-27     2456.202 
   252.563891  5.95771e-23      360.710 
   253.049828  1.28375e-27     2772.756 
   253.753448  4.15508e-24      154.658 
   253.935885  3.31192e-23      512.173 
   253.956567  5.84897e-23      129.563 
   254.078872  2.48817e-26     2158.144 
   254.144870  1.44904e-28     2849.563 
   254.194874  1.01878e-23      747.494 
   254.280536  1.66525e-22       20.294 
   254.283319  3.17088e-22      194.982 
   254.322575  2.75918e-28     3108.260 
   255.553303  9.69347e-23       13.226 
   255.595335  6.00177e-24      926.391 
   255.690729  2.43041e-28     3165.384 
   255.818414  1.63862e-23      689.988 
   255.958044  5.43975e-23       10.659 
   256.019083  9.83964e-28     2556.565 
   256.073341  3.38672e-27     2159.634 
   256.246945  1.34580e-22       16.395 
   257.099966  2.00207e-22       24.671 
   257.318869  5.00241e-24      926.879 
   258.311195  1.25829e-26     1863.859 
   258.388712  2.96401e-22      360.516 
   258.666966  5.99624e-23      209.045 
   258.942199  2.57679e-22       35.478 
   259.599444  3.32950e-22      319.048 
   260.194085  2.20384e-24     1125.527 
   260.269309  5.39361e-24      820.137 
   261.062783  7.27410e-24      894.125 
   261.091176  5.91942e-24      260.960 
   261.345528  4.93832e-26     1564.215 
   261.930398  9.37733e-26     1880.033 
   262.108710  7.16934e-26     1478.439 
   262.180819  1.81000e-27     2292.773 
   262.256905  3.08517e-22       48.801 
   262.285767  1.22540e-27     2827.096 
   262.333966  6.07127e-24       24.942 
   262.361603  4.25676e-27     2076.567 
   262.524936  2.55611e-24      263.555 
   262.824699  8.73533e-25     1343.403 
   262.969728  5.05102e-23      307.907 
   263.216458  1.24074e-23      698.521 
   263.543949  3.12521e-22      310.258 
   263.897866  6.34277e-24      226.817 
   264.165960  2.43826e-24       48.738 
   265.212068  3.12449e-25     1580.472 
   265.461471  5.44727e-24      297.418 
   265.481968  2.68522e-22      404.456 
   265.608326  1.16273e-23      777.236 
   266.943323  3.64989e-23      426.133 
   267.192863  3.74179e-25     1346.430 
   267.334762  3.14253e-25     1621.044 
   267.356287  1.00967e-25     1836.692 
   267.428322  8.74137e-24      757.922 
   267.537450  3.53329e-22       64.627 
   267.719836  3.78163e-22      280.123 
   268.168334  3.95348e-23       62.438 
   268.793684  3.49284e-26     1652.242 
   268.937035  5.61797e-27     2507.764 
   269.256261  2.95243e-26     2112.021 
   269.762359  2.88323e-24     1124.545 
   269.786419  4.06330e-24      182.843 
   269.821265  2.53793e-26     1903.831 
   270.224661  3.23280e-25     1136.816 
   270.605508  2.30929e-23      563.704 
   270.910101  7.82311e-27     2406.411 
   271.121906  2.31889e-27     2262.701 
   271.529015  1.79052e-22       15.614 
   271.685910  4.39926e-25     1063.898 
   271.726174  3.78250e-24      484.919 
   272.248655  1.07048e-25     1394.899 
   272.315263  1.87966e-27     2719.813 
   273.462668  6.22271e-23      119.325 
   273.468668  4.09996e-28     3052.172 
   273.752961  2.55376e-22       94.581 
   273.982630  1.29413e-23      720.598 
   274.075220  1.39181e-24      776.954 
   274.366740  8.12231e-29     3403.432 
   274.521583  4.45020e-24      437.827 
   274.525458  6.59142e-24      194.982 
   275.185090  4.02049e-26     1578.715 
   275.240182  3.92536e-22       82.937 
   275.301068  9.56708e-29     2967.588 
   275.375691  2.28812e-24      490.296 
   276.254576  4.98057e-24      336.198 
   276.301239  1.76840e-24      716.933 
   276.405584  2.35277e-26     2207.443 
   276.558362  3.22092e-24      534.311 
   276.640342  2.16262e-28     3224.718 
   276.861074  2.42314e-25     1212.002 
   276.992840  2.58392e-24     1160.602 
   277.085960  6.46963e-24      896.788 
   277.626232  2.19978e-28     2764.846 
   278.250970  6.74185e-23      195.602 
   278.858186  2.08343e-26     1769.689 
   279.766581  1.10887e-24      839.259 
   279.924865  2.89921e-24     1092.245 
   280.807280  4.30407e-22      243.803 
   280.946708  1.01223e-24     1381.200 
   281.363528  2.48359e-25     1148.165 
   281.402687  9.77866e-25      785.259 
   281.688980  2.47845e-22      450.799 
   281.762600  6.61575e-22       65.264 
   282.036580  1.38382e-22       10.886 
   282.292800  2.47388e-22      128.811 
   282.326547  6.09789e-25      993.232 
   282.504368  1.16837e-24     1306.935 
   282.636240  5.88680e-23      291.259 
   282.826822  8.87114e-26     1926.187 
   283.292207  2.51988e-26     1742.534 
   283.440925  1.10453e-27     2883.307 
   283.464600  6.92435e-22       74.663 
   284.827424  4.24599e-25     1540.823 
   285.743550  4.26363e-22      103.712 
   285.768270  5.19732e-24      393.023 
   286.416320  2.10416e-22      163.123 
   286.651460  4.37098e-23      406.281 
   286.769332  1.45740e-24       34.550 
   286.895166  1.39373e-25     1793.868 
   287.413760  2.26297e-24      659.183 
   287.485440  3.47200e-23       56.046 
   288.117047  2.75346e-24      586.012 
   288.519960  3.85815e-22      103.712 
   288.707541  4.13885e-26     2066.028 
   290.263547  1.11322e-26     2357.256 
   290.338601  2.82930e-23      540.651 
   290.409897  3.92355e-24      213.369 
   290.495308  1.84450e-25     1289.468 
   290.756676  5.14730e-27     2560.844 
   291.561460  2.71568e-27     2667.503 
   292.120620  1.60723e-27     2368.027 
   292.360422  8.92852e-25      903.858 
   292.598951  6.01145e-28     2996.715 
   292.670895  4.53398e-24      377.306 
   292.851424  1.63185e-25     1313.577 
   292.882585  6.41031e-23      109.730 
   293.373153  1.20859e-28     3344.836 
   293.386290  6.48006e-24      165.450 
   293.608971  3.12521e-25     1664.033 
   293.717793  1.61838e-23      694.346 
   294.987272  3.33795e-27     2187.969 
   295.433313  9.35361e-25     1421.056 
   296.004278  5.97144e-24      992.776 
   296.168710  3.55696e-22      226.817 
   296.535490  4.86272e-22      210.144 
   296.805979  8.24289e-24      867.340 
   297.257007  1.07989e-23      838.675 
   297.604898  1.89618e-28     3284.685 
   297.718153  2.17310e-26     2257.386 
   297.782570  7.41275e-23      182.803 
   298.576308  2.55670e-22       25.518 
   299.316816  4.54548e-22      126.933 
   299.613076  3.75993e-24     1059.605 
   300.273416  3.23132e-22      350.500 
   301.896629  2.85417e-22      116.862 
   302.146069  1.54127e-24     1271.108 
   302.236226  6.73410e-23      275.255 
   303.117123  8.53059e-25      924.806 
   303.728906  1.83603e-26     1835.101 
   304.409076  5.69219e-25     1501.813 
   304.886919  9.83285e-28     2940.155 
   305.484703  2.35765e-24      640.029 
   306.098237  5.92897e-24      350.500 
   306.303750  5.14967e-23      387.074 
   306.329817  8.56997e-25     1265.480 
   306.404443  1.89880e-25     1751.682 
   306.738850  2.74207e-23       50.295 
   307.015147  8.45433e-26     1972.979 
   307.185305  2.31995e-22      499.482 
   307.332520  2.63803e-28     2754.594 
   308.133103  5.72769e-26     2020.671 
   308.232622  2.88323e-24      603.692 
   309.548806  2.68027e-24      299.932 
   309.594965  1.56451e-26     2308.735 
   310.017205  3.41570e-23      518.241 
   310.058892  1.41507e-25     1369.224 
   310.789127  3.87507e-27     2615.825 
   310.851394  7.22569e-25      970.761 
   311.078891  3.50332e-26     1677.702 
   311.714023  8.70722e-28     2941.888 
   311.975508  2.89520e-25     1707.687 
   312.145954  4.63532e-27     2614.565 
   312.258421  6.37352e-23      100.778 
   312.367497  1.77738e-28     3286.869 
   312.542518  5.40480e-22      179.191 
   313.279718  2.28812e-22        8.747 
   313.404008  1.99517e-23      668.737 
   313.412282  1.49169e-22      269.669 
   313.660850  8.78374e-22       84.118 
   313.900733  4.10279e-24      420.745 
   314.922721  3.74093e-24      246.236 
   315.395237  6.23705e-25       22.727 
   315.445064  8.67520e-29     3176.130 
   316.099010  4.77067e-22      152.578 
   316.481031  1.03629e-23      838.535 
   317.250395  7.97038e-23      170.647 
   318.011190  1.11527e-27     2475.620 
   318.088681  8.15604e-24      959.134 
   318.238151  2.00253e-23      747.307 
   318.741353  1.64240e-28     3345.286 
   319.260772  4.81259e-24     1027.607 
   319.277053  2.10029e-22      561.844 
   319.698703  1.73013e-22      616.467 
   320.087859  2.47388e-24     1234.618 
   320.475689  5.84762e-24      138.227 
   320.699382  2.00069e-26     2307.969 
   321.330165  9.39462e-22       94.581 
   321.420531  4.42873e-23      561.772 
   321.751389  2.00715e-24     1235.921 
   321.782612  7.57145e-23      259.895 
   322.438482  2.98868e-24     1197.220 
   322.475413  8.72729e-23      402.555 
   323.026461  3.46720e-22       38.026 
   323.093852  9.14912e-24      902.833 
   323.526415  2.83909e-22      154.658 
   323.958411  7.54014e-25     1463.443 
   324.517411  4.48931e-28     2649.412 
   324.780917  2.50080e-25     1234.462 
   325.163843  3.82542e-27     2177.123 
   325.885272  2.55611e-25     1710.133 
   325.901040  5.97557e-23      368.510 
   325.960301  1.81251e-23       45.185 
   326.178885  8.62937e-28     2997.640 
   326.412431  2.32370e-24      539.568 
   326.799203  6.92595e-26     1807.117 
   326.867493  5.85840e-22      150.973 
   327.216816  2.58511e-22      509.729 
   327.282245  3.15703e-27     2444.305 
   327.306399  7.73890e-26     2020.426 
   327.533926  7.83392e-26     1975.950 
   327.760720  2.01316e-24      696.368 
   328.905181  2.17410e-26     2260.849 
   329.064116  1.33838e-26     1929.950 
   329.645919  4.06518e-23      496.476 
   329.689298  1.45071e-22      673.522 
   329.998964  5.46738e-27     2564.781 
   330.551091  9.77866e-25     1461.516 
   330.814471  1.24790e-27     2887.693 
   331.350264  2.58571e-28     3229.531 
   331.580204  6.07826e-23       92.468 
   332.091431  3.10870e-22      141.501 
   332.505242  2.65693e-22       10.659 
   333.043438  2.42761e-23      643.771 
   333.360324  1.72417e-24     1187.313 
   333.984734  5.51289e-24     1061.819 
   334.273864  5.84224e-25     1039.974 
   334.385373  4.14075e-27     2668.924 
   334.541544  1.08537e-25     1451.277 
   334.673352  1.85088e-22       18.825 
   334.761225  1.18544e-24      858.610 
   335.487881  3.69725e-26     1666.511 
   335.773187  6.46665e-24      310.258 
   335.944750  9.59355e-25      847.404 
   336.089226  4.93037e-22      180.632 
   336.113519  1.28641e-23      810.372 
   336.669577  8.37297e-23      159.134 
   338.305992  6.14015e-22      125.498 
   338.611808  5.92897e-22      126.933 
   338.869760  6.08666e-24      996.250 
   338.956048  2.35494e-25     1223.155 
   339.149240  3.68027e-24      466.519 
   339.259587  3.59153e-24      550.456 
   339.848382  1.40533e-28     3406.521 
   339.890921  8.56208e-25     1502.692 
   340.316405  3.87864e-22      260.960 
   340.457426  6.16566e-27     2085.319 
   341.136395  2.83321e-25     1751.967 
   341.275521  8.36333e-23      245.178 
   341.321936  2.58392e-24     1201.375 
   341.323278  7.05309e-24      969.745 
   341.403066  2.18615e-22      550.456 
   341.673958  3.20390e-22      460.195 
   341.838297  1.79672e-26     2359.199 
   342.634964  3.51868e-24      281.446 
   342.761623  3.30506e-22      393.023 
   343.476755  9.87369e-25     1425.712 
   345.148970  8.06825e-24       40.715 
   345.338539  4.52563e-22       53.108 
   345.338786  3.40314e-25     1669.223 
   345.448982  6.83092e-23      350.590 
   346.523878  6.18556e-22      102.750 
   346.652167  1.11142e-21      105.299 
   346.910966  1.05994e-25     1931.867 
   347.829192  3.08091e-24     1111.964 
   347.830813  7.68386e-28     2585.485 
   347.915068  7.50204e-28     3055.761 
   348.195005  2.98868e-26     2213.598 
   348.387796  3.34949e-22      191.843 
   348.633354  1.54625e-25       13.313 
   349.191653  7.63624e-27     2514.370 
   349.227057  4.77397e-23      475.353 
   349.783318  1.23760e-22      732.935 
   349.900872  1.77002e-27     2834.129 
   350.110292  4.91676e-24     1039.446 
   350.321940  3.72460e-28     3172.822 
   350.862753  5.50148e-23       84.799 
   351.257224  3.09371e-22       13.226 
   351.873873  5.96457e-22       82.698 
   352.638992  2.91796e-23      619.448 
   353.111916  7.23235e-26     2068.508 
   354.084118  1.70679e-24      755.031 
   355.045516  5.47998e-22       65.306 
   355.155033  2.67842e-24      338.653 
   355.186494  4.70521e-24      113.336 
   355.580711  5.86110e-26     1587.894 
   355.705491  1.57826e-23      782.851 
   355.801794  3.63730e-27     2723.925 
   356.040640  8.57787e-23      148.263 
   356.755189  4.74875e-22       50.538 
   356.930236  2.52510e-25     1796.928 
   357.165360  5.84628e-22       73.551 
   357.241190  6.32673e-22       92.118 
   357.387570  5.17582e-22       57.550 
   357.581448  3.78686e-22       38.368 
   357.671780  4.30506e-22       44.115 
   357.892442  3.21869e-22       33.247 
   357.925960  2.58095e-22       28.776 
   357.962890  6.63100e-22      113.244 
   358.013090  1.86243e-22       24.942 
   358.038080  1.02868e-22       21.750 
   358.215640  1.19311e-21      116.862 
   358.345393  9.68901e-27     2027.087 
   358.441909  7.61341e-24      965.536 
   359.151156  5.01972e-22      211.076 
   359.770682  6.77765e-22      136.917 
   360.290400  3.96442e-22      413.312 
   360.721825  9.07986e-23      231.104 
   360.859234  3.29063e-24     1167.470 
   361.199932  1.19064e-28     3468.389 
   361.721947  4.69223e-25     1111.501 
   362.023046  2.22679e-24     1311.269 
   362.965418  1.27932e-24     1388.622 
   363.008445  8.26950e-26     1535.632 
   363.159258  6.79015e-22      163.123 
   363.890896  3.12090e-22      182.843 
   363.925838  3.30354e-22      168.493 
   364.766088  4.48414e-25     1628.952 
   364.950084  7.69802e-23      333.313 
   365.748673  1.62061e-26     2411.066 
   366.214471  5.74089e-22       70.722 
   366.265161  1.41997e-25     1888.420 
   367.465231  4.06892e-26     2166.983 
   367.659123  3.26347e-24      514.629 
   367.808977  2.07768e-28     2870.139 
   368.330907  4.74110e-24     1133.543 
   368.367867  1.05628e-26     2464.592 
   368.477730  3.77815e-25     1157.551 
   368.629935  6.69082e-22      191.843 
   368.764086  5.53706e-23      454.874 
   368.973793  2.48702e-27     2781.197 
   369.283002  5.31471e-28     3116.743 
   369.294799  1.03200e-28     3471.173 
   369.317200  6.43842e-28     3114.519 
   370.108624  4.64172e-23       77.771 
   371.172452  3.59318e-22       16.395 
   372.192983  3.46561e-23      595.768 
   372.233007  6.42509e-26     2117.251 
   372.893915  3.26197e-24      318.997 
   373.095790  1.66065e-25     1713.108 
   374.478691  6.60662e-24      272.311 
   375.178490  2.22269e-24      591.178 
   375.259120  1.91505e-23      755.973 
   375.371142  8.54632e-23      138.034 
   376.641079  6.50398e-22      223.056 
   377.485964  1.60502e-24      794.646 
   377.499689  8.26760e-23      872.575 
   377.978962  9.42062e-24      935.462 
   378.602648  3.18478e-27     2779.563 
   379.030802  2.94767e-24     1272.505 
   379.781025  1.06900e-22      794.646 
   380.124399  9.68009e-23      217.673 
   380.157597  6.35447e-23      940.306 
   380.364792  4.14839e-24     1134.206 
   380.384813  8.67120e-24     1026.758 
   380.433685  1.34735e-21      128.811 
   380.466242  4.29121e-24      499.482 
   380.491305  4.85936e-22      369.135 
   380.720405  5.22492e-28     2697.627 
   382.425666  1.64165e-24     1352.170 
   382.442797  9.98112e-29     3530.891 
   382.851509  9.01113e-25     1544.436 
   382.973233  2.05627e-22      603.692 
   383.017878  2.19371e-22      306.272 
   383.550902  3.10013e-27     2279.979 
   383.653045  1.43113e-24      816.022 
   384.006534  7.43326e-25     1586.946 
   384.168259  5.85301e-25     1589.318 
   384.408428  8.55420e-23      316.678 
   384.442561  1.09189e-22      807.314 
   384.642627  8.99455e-28     2536.111 
   384.836494  1.08064e-26        6.360 
   384.935400  4.09335e-22      297.418 
   385.028563  5.03245e-22      243.898 
   385.597426  1.88486e-25     1845.610 
   385.871839  8.24858e-22      152.578 
   386.439733  1.41997e-26     2463.584 
   386.604493  7.11835e-22       90.817 
   386.716638  5.48882e-26     2121.003 
   386.737622  2.30717e-23      807.237 
   387.507239  8.77969e-25      911.880 
   387.528267  1.44804e-26     2415.448 
   387.564519  6.24711e-22      256.741 
   388.033793  3.46321e-27     2728.896 
   388.128638  1.48279e-28     3412.584 
   388.233922  7.51933e-28     3061.294 
   388.259618  6.34277e-23      435.037 
   388.322815  4.09807e-22       20.294 
   388.912089  3.32108e-22      437.827 
   389.325027  3.52841e-23       71.383 
   390.196551  8.79385e-27     2334.643 
   390.486717  2.45629e-25     1842.496 
   390.718084  6.92754e-27     2126.516 
   391.295923  2.76235e-28     3051.048 
   391.417340  5.48882e-28     3173.913 
   391.707935  4.07173e-23      572.731 
   391.763303  3.10727e-26     1756.621 
   392.365802  3.72545e-25     1185.344 
   392.991335  2.06291e-25     1300.468 
   393.396329  4.96683e-23     1010.425 
   394.436855  1.43840e-21      141.501 
   394.439313  5.53961e-23      613.974 
   394.581934  2.19422e-22       29.185 
   394.613531  6.22701e-26     1622.291 
   394.664700  8.24289e-23      128.446 
   394.776395  2.29974e-23      729.737 
   396.079433  1.18435e-22      446.984 
   396.264689  3.29518e-24       90.817 
   397.009898  3.42673e-22      197.833 
   397.482655  1.15446e-23      906.031 
   397.571302  3.79646e-24     1207.975 
   398.732253  2.85417e-24      565.074 
   398.767750  1.11630e-26     1984.827 
   398.915289  2.56495e-24      379.716 
   399.299608  1.45539e-22      744.603 
   399.487908  1.01246e-22      204.883 
   399.840062  5.18059e-24     1101.582 
   399.914628  5.85301e-22      327.708 
   399.921263  2.73829e-27     2835.845 
   400.466274  5.92897e-26     2166.620 
   401.652696  5.93717e-22      292.875 
   401.858743  2.08727e-24     1316.358 
   401.979663  1.89356e-24     1390.571 
   402.016185  2.10223e-25     1888.770 
   403.153111  3.29898e-22      213.369 
   403.546352  7.57145e-25     1550.324 
   403.826992  9.36870e-23      300.686 
   404.908662  2.47959e-25     1803.438 
   405.107811  2.97632e-24      358.890 
   405.949989  7.34141e-26     2075.658 
   406.673501  1.96825e-26     2366.938 
   406.955385  2.11339e-28     3354.622 
   407.081421  4.78387e-27     2677.228 
   407.175164  1.05507e-27     3006.475 
   407.271943  3.56434e-25     1621.869 
   407.606005  8.63931e-22      113.336 
   407.716580  7.17760e-23      415.843 
   408.516632  2.24481e-23       65.635 
   408.911887  4.87842e-22      223.056 
   410.608217  4.68036e-22       24.671 
   411.186116  4.73129e-23      550.336 
   411.701483  1.26090e-26     2516.735 
   412.380239  9.56267e-26     1500.274 
   412.877776  4.62040e-28     3233.946 
   413.375134  4.96340e-22      279.086 
   413.926356  7.64151e-23      119.500 
   414.259313  2.73451e-23      704.143 
   414.742463  1.57210e-21      154.658 
   415.742218  1.18326e-24      879.340 
   415.929743  3.49284e-28     2812.047 
   416.825554  6.87986e-22      289.053 
   416.954648  1.40113e-23      877.240 
   417.451330  3.94257e-23     1082.859 
   417.528302  5.11304e-26     2216.663 
   418.671807  9.27853e-23      858.610 
   418.815796  1.03748e-22      192.736 
   419.019033  5.58444e-22      331.435 
   419.286468  6.41031e-24     1069.599 
   419.769093  1.94348e-22      684.519 
   420.002337  2.81955e-24     1285.148 
   421.207609  6.22701e-24      236.696 
   421.265857  2.63014e-24     1281.186 
   421.452093  2.02619e-24      645.125 
   422.901401  9.71134e-25     1511.967 
   423.209128  1.01130e-22      285.337 
   423.499592  2.35819e-27     2892.761 
   423.513695  5.16868e-22       29.988 
   423.747955  5.52560e-25     1082.859 
   423.896132  1.50688e-28     2987.969 
   424.199747  3.23504e-25     1761.902 
   425.166035  9.73821e-26     2030.949 
   425.432807  4.87393e-27     2228.237 
   425.465295  2.91527e-25     1261.506 
   425.775426  2.98937e-28     3297.289 
   425.804206  2.65387e-26     2319.062 
   426.107184  1.46886e-27     2952.286 
   426.117219  6.55510e-27     2626.192 
   427.137553  8.02748e-23      397.291 
   427.273923  6.15006e-25     1673.826 
   427.688419  9.59355e-24       60.527 
   428.592005  6.89889e-25     1533.444 
   428.609816  4.61827e-26     1711.256 
   428.768082  4.17330e-22      336.198 
   429.863842  1.91637e-22      659.183 
   430.193704  1.05604e-21      180.632 
   430.228645  1.66180e-21      168.493 
   430.232311  1.02560e-21      138.227 
   430.347555  7.85198e-22      253.170 
   430.629814  5.43975e-23      528.582 
   430.844775  2.08247e-24      732.935 
   431.001836  3.47280e-22      229.521 
   431.126727  4.84372e-24      450.799 
   431.501574  1.07939e-26     2570.543 
   431.748174  2.45742e-24      617.855 
   433.160101  6.73565e-23      111.194 
   433.709765  3.21943e-23      679.191 
   433.786830  1.93010e-24     1365.097 
   434.585084  5.81406e-22       19.197 
   434.987850  2.14082e-23     1250.970 
   435.452039  3.87507e-28     3294.612 
   436.050203  7.61516e-25      978.687 
   436.396572  1.68492e-23      849.091 
   436.578423  3.26046e-22      484.919 
   437.139591  1.20970e-24     1447.855 
   437.827736  2.33711e-27     2385.135 
   438.111820  1.03915e-22      181.229 
   438.655814  8.00165e-25     1629.961 
   438.705392  7.86284e-24     1038.256 
   438.763813  2.67226e-24      401.125 
   438.898497  1.52258e-24     1472.542 
   439.632470  5.19851e-22      372.404 
   440.105088  1.54021e-23     1331.749 
   440.412638  8.68119e-22      220.036 
   440.484005  3.01981e-23     1172.620 
   440.548476  2.79949e-24     1350.402 
   440.648190  3.28685e-24     1246.654 
   440.853578  2.37017e-24      423.121 
   441.396064  3.37038e-22      246.236 
   441.996793  1.96870e-24       70.722 
   442.200658  2.05343e-25     1935.621 
   442.234475  1.23532e-24     1474.249 
   442.557780  1.07518e-22      270.628 
   442.671575  2.19674e-26     2227.662 
   443.178899  2.58095e-22      627.131 
   443.471542  4.18677e-25     1721.004 
   443.578786  1.70365e-25     1380.102 
   443.791755  4.81370e-22      316.632 
   444.235468  2.44782e-26     1849.041 
   444.365510  1.28197e-25     1986.876 
   444.511452  1.98783e-27     2950.325 
   444.589140  4.19739e-28     3240.584 
   444.921010  3.55205e-26     2271.820 
   445.030434  2.03039e-27     2898.728 
   445.141719  8.91619e-27     2575.788 
   446.525150  8.86909e-23      379.381 
   446.951221  1.67834e-25     1983.220 
   447.324195  1.08863e-28     3029.747 
   447.487277  9.29564e-22      189.617 
   448.796492  8.85889e-24     1096.994 
   449.384147  1.77247e-21      182.843 
   449.411349  4.69007e-26     2267.317 
   449.716773  9.62896e-25      944.986 
   450.041185  6.18984e-23      507.471 
   451.490385  5.80870e-22       35.478 
   451.756052  3.16067e-23     1157.551 
   452.247727  9.64893e-22      161.876 
   452.369973  5.53834e-23      103.528 
   452.786922  3.01078e-22      345.413 
   452.819212  2.29076e-28     2928.747 
   453.129613  3.75474e-23      654.880 
   453.478416  8.86705e-22      235.619 
   453.703920  8.25048e-22      269.669 
   453.717075  6.39704e-22       21.750 
   454.098141  9.36439e-22      204.139 
   455.093098  4.30407e-23     1096.784 
   455.141886  1.18790e-21      165.450 
   455.159572  9.69347e-22      175.236 
   455.247116  7.56100e-22      306.272 
   455.348224  9.71134e-22      136.782 
   455.768568  6.19840e-22       42.347 
   455.809962  2.00900e-23      821.583 
   456.352312  9.80797e-22      148.917 
   456.576509  1.12559e-23     1414.875 
   456.878960  3.20464e-28     3355.918 
   457.315493  9.45974e-22      114.309 
   457.379314  1.01386e-22      170.364 
   457.466811  9.66450e-22      125.184 
   457.589087  1.73852e-27     2424.967 
   458.098193  9.56267e-24     1007.554 
   458.386732  9.22740e-22      104.035 
   458.531662  8.88136e-22       94.435 
   458.611743  6.83879e-22      345.413 
   458.756916  9.47937e-27     2624.977 
   459.069298  7.85560e-28     2928.538 
   459.070536  8.47187e-22       85.465 
   459.257962  7.96488e-22       77.149 
   459.528388  7.37699e-22       69.471 
   459.668358  6.69544e-22       62.438 
   459.799888  5.92079e-22       56.046 
   459.878990  5.04173e-22       50.295 
   459.936107  4.04743e-22       45.185 
   459.969174  2.91326e-22       40.715 
   459.987170  1.59433e-22       36.885 
   460.006894  4.07361e-24     1212.761 
   460.379842  2.24429e-25     1339.986 
   461.383692  1.94482e-25        6.360 
   461.410201  2.54319e-23      869.776 
   461.546356  1.55948e-24     1437.170 
   461.849268  3.36728e-27     2332.253 
   461.875905  1.12481e-22      256.562 
   462.724894  5.37749e-25     1680.743 
   463.011430  2.34628e-22       41.953 
   463.055024  3.91994e-26     2318.666 
   463.326227  4.78387e-22      415.761 
   463.396903  5.85301e-28     3184.508 
   463.549137  1.67486e-25     1943.439 
   463.558860  1.50723e-24       13.313 
   463.945357  2.78599e-27     2845.801 
   464.024528  4.71823e-26     2225.213 
   464.155445  1.20387e-26     2526.017 
   464.287759  6.11617e-22      387.068 
   464.355899  3.36573e-26     1802.529 
   464.664644  8.03488e-23      924.806 
   465.416363  1.77533e-24      701.408 
   465.622061  3.44175e-22      263.555 
   465.751158  1.85131e-21      197.833 
   465.881816  9.68009e-23      362.113 
   466.176844  2.08151e-24      672.972 
   466.789747  6.56416e-22      256.741 
   466.887685  3.38360e-22      572.494 
   468.903488  5.62833e-24       22.727 
   469.001827  4.86272e-25     1763.346 
   469.195659  1.68919e-27     3008.520 
   469.372353  1.94751e-26     1886.523 
   469.422343  6.97075e-23      487.002 
   471.190476  4.11414e-22      377.306 
   471.463300  1.15606e-24     1557.206 
   471.559614  4.10468e-23       96.502 
   471.894370  1.26322e-21      211.076 
   472.037561  1.51803e-22      493.983 
   472.139379  6.59294e-23      668.770 
   472.520782  4.33890e-23      631.211 
   472.706132  5.41476e-22      431.216 
   472.851354  7.07586e-22       24.942 
   473.437712  2.35874e-24      445.701 
   474.340280  5.38120e-24      203.463 
   475.196476  2.37399e-23      794.716 
   475.865881  4.58859e-22      356.530 
   476.621547  9.58692e-23      160.139 
   476.625543  6.15856e-23     1023.547 
   476.971185  7.92829e-27     2680.078 
   477.466179  1.15366e-23      977.492 
   478.826189  3.34410e-22      281.446 
   479.317518  1.39791e-23       34.550 
   479.343097  5.01048e-24     1179.507 
   479.732823  1.75744e-22      716.933 
   480.092905  2.65020e-28     3417.857 
   480.746783  1.49927e-25     1414.875 
   480.838305  1.95335e-24     1400.729 
   481.166236  1.15632e-22      243.137 
   481.201419  1.57210e-28     3483.492 
   481.237063  2.12412e-24      468.867 
   481.887045  6.32819e-25     1047.824 
   481.960629  6.85771e-25     1641.119 
   482.199085  8.10736e-28     3129.061 
   482.503149  1.34023e-21      194.982 
   482.717623  2.17260e-25     1900.637 
   482.852393  3.79734e-27     2793.505 
   483.094850  4.98861e-26     2123.434 
   483.115366  6.22414e-26     2179.240 
   483.158912  1.61465e-26     2476.879 
   483.994168  3.11300e-22      534.311 
   484.199871  4.75094e-22      477.832 
   484.227262  1.93678e-21      213.369 
   484.270880  7.11507e-22       57.398 
   484.346385  8.33641e-24     1500.274 
   485.040520  7.70334e-25     1012.961 
   485.209940  1.04347e-22      345.486 
   488.534567  1.66986e-27     2492.587 
   488.728503  4.34990e-22      520.643 
   488.775312  7.76925e-23      467.174 
   489.564047  1.39759e-27     3067.366 
   489.637013  7.72644e-25     1010.425 
   489.809341  5.13073e-24      404.456 
   489.819668  4.35090e-22      461.493 
   490.538700  9.76966e-25       53.108 
   490.732446  2.54436e-23       90.116 
   490.857672  1.47292e-28     3047.727 
   491.132811  1.34363e-25     1462.057 
   491.325653  1.28878e-25     2080.286 
   491.884601  4.96797e-23      608.183 
   491.934721  7.81591e-22       28.776 
   492.056315  3.75387e-24     1696.695 
   493.393224  1.83518e-26     1943.770 
   493.639976  2.56495e-24      673.522 
   494.557464  2.78278e-23      768.490 
   494.779727  6.84825e-22       48.801 
   494.911680  2.54319e-23     1234.462 
   495.841531  8.72528e-23      150.555 
   496.010396  5.64520e-24     1605.323 
   496.572969  1.69777e-25     1420.784 
   496.688782  2.59704e-23       48.738 
   496.810585  1.38095e-23      948.071 
   496.977592  1.66487e-25     2031.344 
   498.109257  8.25618e-25     1644.593 
   498.657898  6.11617e-24     1146.893 
   498.920326  6.89571e-25     1718.094 
   498.975874  4.13218e-22      526.892 
   499.435686  2.28286e-27     2438.563 
   499.505242  2.53151e-24     1790.456 
   499.887911  2.19826e-28     3425.530 
   500.111000  2.42929e-24     1364.927 
   500.393647  3.59981e-26     2370.601 
   500.431457  1.16595e-22      230.352 
   500.655465  3.33948e-22      299.932 
   500.996051  1.11578e-27     3074.244 
   501.107678  1.99793e-21      229.521 
   501.179559  8.68119e-25     1602.133 
   501.317595  2.40924e-26     1896.109 
   501.332613  2.15665e-28     3480.437 
   501.583856  1.73332e-24      730.425 
   501.751972  5.14256e-27     2741.840 
   501.871666  2.79885e-25     1858.473 
   502.152630  2.15119e-26     2428.375 
   502.194118  8.15604e-26     2133.902 
   502.400373  8.78981e-23      952.987 
   504.511799  1.10963e-22      329.501 
   507.183254  6.91639e-27     2735.793 
   507.330551  5.45355e-22      471.592 
   507.448835  1.50549e-24      760.027 
   507.969170  2.57917e-24     1430.911 
   508.102059  8.56800e-23      447.988 
   508.283496  3.67434e-25     1855.521 
   508.596220  2.90322e-26     2423.266 
   508.709824  7.90641e-22       75.150 
   508.794655  2.04729e-24      492.617 
   509.206212  4.29615e-22      398.776 
   509.891611  1.05750e-23       84.370 
   510.055401  8.58182e-24     1516.430 
   510.515918  1.03438e-25     2022.011 
   511.089699  8.59566e-22       33.247 
   511.223169  5.63611e-23      585.797 
   511.501906  1.43113e-21      243.898 
   512.075987  1.47156e-21      226.817 
   512.085281  3.92988e-22      420.745 
   513.894443  3.23429e-23      742.905 
   515.042176  7.55230e-23      141.611 
   515.421659  6.89095e-23      993.232 
   515.658373  3.23280e-22      318.997 
   515.849396  1.17565e-27     3126.838 
   516.132728  1.64013e-23      919.289 
   516.601951  2.03741e-27     2808.689 
   517.076552  5.51543e-25     1734.736 
   517.100099  3.56270e-22      578.374 
   517.952371  7.41104e-24     1114.919 
   518.187245  2.66796e-26        1.912 
   518.571669  3.05478e-28     3368.197 
   518.750421  3.90552e-22      509.589 
   518.873307  1.73173e-24     1886.523 
   519.187533  2.05674e-21      246.236 
   519.365529  2.99971e-24     1329.763 
   519.674088  1.15048e-22      218.209 
   519.788162  1.52574e-27     3020.057 
   520.382479  1.09164e-24     1563.784 
   520.403099  1.85515e-24      516.953 
   520.644521  6.92117e-27     2690.807 
   521.011947  3.58162e-25     1816.944 
   521.126625  8.20879e-22      292.875 
   521.137096  2.84760e-26     2380.503 
   521.261370  1.06164e-25     2089.199 
   521.277433  6.05591e-25     1083.262 
   521.281205  3.88937e-22      387.068 
   522.191682  6.65241e-22      425.330 
   522.520900  6.22414e-24     1587.894 
   522.650387  3.84485e-23       65.264 
   522.750688  5.64260e-27     2792.192 
   523.762326  8.76555e-24     1169.842 
   523.789591  1.16380e-22      314.156 
   524.779620  1.96372e-25     1923.422 
   525.481132  5.08135e-25     1119.288 
   526.533059  3.42436e-25     1827.669 
   527.404477  9.34715e-23      429.443 
   529.291001  8.59764e-22       95.588 
   529.606882  1.24217e-22      885.167 
   529.974930  9.38597e-22       38.368 
   530.031290  2.88589e-22      586.012 
   530.380695  1.57717e-22      776.954 
   530.537983  6.33548e-23      564.051 
   531.902562  4.26363e-24      172.676 
   532.139444  1.31123e-23     1430.104 
   533.208786  3.72803e-23      717.961 
   533.496739  7.88823e-22      381.827 
   533.610872  1.26119e-25     1503.900 
   534.226180  6.10210e-23      133.307 
   534.572129  9.53190e-26     2179.978 
   535.047469  9.54288e-28     3186.970 
   535.098025  2.21554e-28     2908.008 
   535.433877  1.93321e-23      891.149 
   535.945368  3.17380e-22      338.653 
   536.181150  1.02207e-25     1546.330 
   536.280088  1.14467e-27     2602.335 
   536.362231  2.09594e-21      263.555 
   537.227567  8.91619e-24     1083.585 
   537.252993  4.22065e-28     3311.491 
   537.627979  1.41866e-24      790.212 
   537.763667  1.51803e-27     2547.167 
   538.496863  3.04354e-22      632.257 
   538.575774  2.07434e-27     2966.499 
   538.602750  3.67857e-24     1295.238 
   538.896543  1.10683e-22      206.706 
   539.064313  1.69231e-26     1991.996 
   539.530459  9.25506e-27     2640.406 
   539.570169  1.36358e-24     1526.074 
   539.811455  1.32397e-26     2040.808 
   540.112806  3.74524e-26     2333.265 
   540.139138  4.55386e-25     1776.052 
   540.201855  3.82718e-25       38.026 
   540.317699  1.37303e-25     2045.131 
   540.604578  2.31942e-22       57.117 
   541.705101  2.70819e-23      934.917 
   541.750902  7.65560e-22       64.627 
   541.810549  9.10499e-22      341.048 
   542.176864  3.20981e-27     2316.027 
   543.045424  1.20248e-22      299.453 
   543.413530  1.57318e-21      260.960 
   543.467759  3.95075e-22      443.365 
   543.973247  2.64898e-25     1950.371 
   544.582245  1.74775e-24      541.872 
   544.796900  2.03882e-23     1313.577 
   545.318491  5.68826e-22      493.983 
   545.517232  6.67543e-22      446.984 
   546.579854  9.22527e-22      118.685 
   546.684399  1.00851e-22      411.539 
   546.695394  4.78828e-22      543.536 
   546.802787  7.72644e-22      402.555 
   547.802224  1.02466e-21      302.957 
   547.963879  1.24274e-24      820.981 
   548.734320  8.81007e-22      360.710 
   548.752293  4.54234e-25     2209.358 
   548.838872  1.85558e-22      543.536 
   549.303375  1.01901e-21       44.115 
   549.566359  1.55160e-21      279.086 
   549.712020  3.45843e-22      560.038 
   549.830628  7.05634e-23      542.947 
   549.849116  1.19834e-24     1984.827 
   550.146865  3.98822e-22      595.623 
   550.946726  9.87823e-22      321.458 
   550.952050  3.24773e-26     1790.456 
   551.403153  7.27913e-25     2105.041 
   551.622937  3.65073e-22      466.519 
   552.069386  3.05478e-22      358.890 
   552.078843  1.12559e-21      267.525 
   552.501947  4.26265e-23      693.658 
   553.164864  1.08813e-21      284.803 
   553.214902  7.54187e-23      726.149 
   553.396082  4.44201e-23      125.643 
   553.831106  2.08151e-26     2530.468 
   553.998408  2.69141e-26     2476.474 
   554.212783  2.12755e-21      281.446 
   554.559141  5.10011e-24      360.516 
   554.714969  2.26141e-23      863.648 
   555.121515  1.20803e-21      234.726 
   555.204096  1.17511e-21      250.746 
   555.666358  1.13000e-21       33.693 
   555.678537  1.31637e-25     2129.667 
   555.750334  1.72695e-22      820.137 
   555.932179  5.79668e-28     3255.414 
   556.139421  3.28912e-22      650.219 
   556.484511  1.06507e-23     1052.890 
   556.959853  1.24302e-21      219.286 
   557.087613  5.00126e-25        6.360 
   557.283233  1.26584e-21      204.543 
   557.339842  4.91563e-27     2849.184 
   557.359239  2.80336e-27     2913.573 
   557.823550  4.48104e-24     1261.352 
   558.086600  4.67821e-25     1155.891 
   558.088114  2.87197e-25     2316.027 
   558.101115  1.03271e-22      195.843 
   558.390938  1.28523e-21      190.419 
   558.410200  1.23049e-26     2590.637 
   558.555790  4.74001e-23       84.118 
   558.662458  1.58482e-24      567.377 
   558.743394  1.69192e-24     1489.000 
   558.812542  1.29384e-21      176.962 
   559.080242  4.89755e-26     2286.661 
   559.188644  2.24429e-25     1331.749 
   559.253898  5.75280e-25     1735.796 
   559.363669  1.76514e-25     2001.698 
   559.500416  1.29533e-21      164.140 
   559.632032  2.00207e-23     1346.430 
   559.882160  1.28671e-21      151.971 
   560.318921  1.26818e-21      140.444 
   560.613536  1.23931e-21      129.563 
   560.890988  1.19917e-21      119.325 
   561.094853  1.14731e-21      109.730 
   561.265648  1.08363e-21      100.778 
   561.361363  9.82380e-22      144.398 
   561.392914  1.00712e-21       92.468 
   561.490537  9.17443e-22       84.799 
   561.560317  8.13353e-22       77.771 
   561.608649  6.94032e-22       71.383 
   561.639407  5.57416e-22       65.635 
   561.656772  4.00386e-22       60.527 
   561.664225  2.17811e-22       56.058 
   562.174826  4.86384e-27     2691.574 
   562.281322  1.22174e-22      285.390 
   562.962074  2.57501e-22      688.523 
   563.672437  7.96855e-28     3247.718 
   564.029758  2.99281e-24      616.467 
   564.469289  1.02868e-24      940.306 
   564.666069  5.79801e-25     1808.834 
   564.895866  1.17863e-24     2003.168 
   565.066230  2.68893e-22      707.301 
   565.943589  1.07518e-22      394.275 
   567.304662  3.96533e-25     1193.078 
   567.592724  1.09542e-21       50.538 
   568.464595  5.81941e-23     1063.898 
   568.680204  3.90013e-27     2906.888 
   569.102784  7.78537e-23      522.483 
   569.387157  4.65778e-24     1677.702 
   571.155416  9.20194e-26     1589.334 
   571.383123  2.95719e-22      379.716 
   571.532539  9.59355e-22      331.435 
   571.553305  2.14279e-21      299.932 
   571.775154  4.83370e-23      669.995 
   572.554254  2.70134e-23      118.618 
   573.977528  2.62591e-23      836.788 
   574.052406  1.14177e-24      852.332 
   574.210364  2.59824e-22      640.029 
   574.587811  1.04083e-21      172.676 
   574.609523  7.91734e-28     3199.965 
   574.678311  1.81585e-25     2047.921 
   574.807375  1.20637e-21       36.885 
   575.724204  1.26322e-23     1022.834 
   575.935703  6.78702e-26     2282.308 
   576.042056  1.63938e-21      297.418 
   576.138904  3.76686e-27     2861.276 
   576.499103  9.90101e-28     2658.065 
   577.028795  5.42225e-24     1228.105 
   577.213691  2.18062e-22      766.842 
   577.260741  1.16702e-26     2090.189 
   577.284152  1.62659e-26     2541.500 
   577.289985  9.27640e-23      185.620 
   577.902904  2.08631e-24     1452.565 
   578.039884  6.36472e-26     2240.691 
   578.356873  7.22236e-25     1696.178 
   578.365333  3.56927e-22      490.296 
   578.399838  2.25517e-25     1958.901 
   579.033687  2.34952e-22      757.922 
   579.239034  7.54535e-26     1632.921 
   579.739702  1.83941e-25     2424.967 
   580.132501  1.38032e-22      839.259 
   580.618613  1.46784e-24      593.466 
   580.896540  6.34131e-28     3309.137 
   581.499225  1.21865e-22      271.968 
   581.637713  7.58891e-28     2714.377 
   582.021547  2.31889e-24     1514.030 
   582.291273  3.01772e-22      612.834 
   584.037945  9.25506e-27     2140.152 
   585.183753  1.13235e-22      377.653 
   586.556213  1.62211e-21      316.632 
   587.096637  4.74219e-22      431.216 
   587.315834  1.91990e-24     1903.831 
   587.329370  1.00226e-24      884.267 
   587.370986  1.09845e-21      203.463 
   587.568338  1.17322e-21       57.550 
   588.189307  2.82605e-22      401.125 
   588.355510  8.50706e-23      502.660 
   589.271422  2.14773e-21      318.997 
   589.599589  1.05240e-25       25.518 
   589.642562  3.03375e-23     1265.480 
   590.076669  3.30887e-22      514.629 
   590.187937  2.15516e-22      747.156 
   591.029798  5.43475e-23      646.972 
   591.268323  2.08679e-28     3499.543 
   591.274182  8.34794e-25     2085.319 
   591.418817  1.36640e-24       94.581 
   591.702901  1.10047e-23      112.232 
   591.858183  3.10155e-24      144.398 
   592.737987  1.75420e-22      828.819 
   592.761659  1.02019e-24       74.663 
   593.222257  3.02607e-23      810.567 
   593.285313  1.07542e-27     3145.146 
   593.944980  1.29354e-21       40.715 
   593.963156  8.08499e-22       82.937 
   594.694039  1.07097e-26     2577.251 
   594.915112  5.03361e-27     2809.611 
   594.947627  1.48826e-23      993.418 
   595.212017  3.55287e-25     1230.845 
   596.152719  2.13737e-26     2492.996 
   596.219335  6.51747e-24     1195.496 
   596.263697  1.32703e-24      620.140 
   596.465217  7.92646e-23      176.038 
   596.992202  8.22582e-26     2195.355 
   597.049434  2.55611e-24     1416.768 
   597.186342  1.63072e-24      116.862 
   597.426754  2.86470e-25     1916.739 
   597.448699  9.01321e-25     1657.196 
   597.601139  2.86075e-24       13.313 
   598.308355  1.44537e-26     2640.279 
   598.533016  3.11731e-22      698.521 
   598.779709  1.17809e-25     2148.202 
   598.870137  1.61875e-23     1394.899 
